%OpenBCI Raw EEG Data
%
%Sample Rate = 250.0 Hz
%First Column = SampleIndex
%Other Columns = EEG data in microvolts followed by Accel Data (in G) interleaved with Aux Data
0, -7297.73, -7424.33, -13632.69, -9380.31, -56372.24, -120695.59, -167651.13, -157473.59, 0.06, 0.00, 0.00
1, -7325.38, -7449.17, -13650.79, -9398.80, -56396.55, -120718.99, -167675.88, -157497.83, 0.06, 0.00, 0.00
2, -7307.92, -7433.43, -13629.20, -9379.84, -56382.70, -120704.42, -167660.19, -157481.83, 0.06, 0.00, 0.00
3, -7277.53, -7406.23, -13596.12, -9350.43, -56358.11, -120679.43, -167633.31, -157455.39, 0.06, 0.00, 0.00
4, -7290.13, -7417.40, -13600.61, -9356.31, -56369.67, -120690.34, -167644.69, -157467.09, 0.06, 0.00, 0.00
5, -7320.15, -7444.11, -13620.46, -9376.49, -56395.68, -120715.48, -167671.41, -157493.27, 0.06, 0.00, 0.00
6, -7311.34, -7436.18, -13606.62, -9364.98, -56389.31, -120708.38, -167663.72, -157485.16, 0.06, 0.00, 0.00
7, -7276.95, -7405.18, -13569.88, -9332.08, -56361.00, -120679.73, -167632.98, -157454.78, 0.06, 0.00, 0.00
8, -7280.34, -7408.28, -13566.30, -9330.33, -56364.84, -120682.90, -167636.33, -157458.33, 0.06, 0.00, 0.00
9, -7314.32, -7438.75, -13589.77, -9353.98, -56394.57, -120711.73, -167666.78, -157488.48, 0.06, 0.00, 0.00
10, -7313.51, -7437.88, -13582.86, -9348.97, -56394.88, -120711.15, -167665.92, -157487.19, 0.06, 0.00, 0.00
11, -7279.61, -7407.41, -13546.77, -9316.68, -56367.30, -120683.13, -167635.81, -157457.19, 0.06, 0.00, 0.00
12, -7275.85, -7404.10, -13537.02, -9309.37, -56365.20, -120680.55, -167632.83, -157454.80, 0.06, 0.00, 0.00
13, -7307.59, -7432.45, -13558.25, -9331.00, -56392.71, -120707.15, -167661.13, -157482.89, 0.06, 0.00, 0.00
14, -7318.27, -7442.44, -13561.85, -9336.12, -56403.22, -120716.85, -167671.05, -157492.20, 0.06, 0.00, 0.00
15, -7289.51, -7417.02, -13530.81, -9308.72, -56380.53, -120693.65, -167645.88, -157467.05, 0.06, 0.00, 0.00
16, -7276.19, -7404.98, -13512.52, -9293.16, -56370.11, -120682.79, -167634.28, -157455.83, 0.06, 0.00, 0.00
17, -7303.37, -7429.00, -13529.67, -9310.98, -56393.61, -120705.54, -167658.39, -157479.95, 0.06, 0.00, 0.00
18, -7317.04, -7440.92, -13535.08, -9317.57, -56405.68, -120716.72, -167670.28, -157491.33, 0.06, 0.00, 0.00
19, -7288.14, -7414.90, -13503.40, -9289.38, -56382.30, -120692.69, -167644.50, -157465.48, 0.06, 0.00, 0.00
20, -7268.59, -7397.51, -13479.84, -9269.09, -56366.96, -120676.86, -167627.44, -157448.91, 0.06, 0.00, 0.00
21, -7295.36, -7421.61, -13497.06, -9287.13, -56390.75, -120699.95, -167651.73, -157473.22, 0.06, 0.00, 0.00
22, -7319.28, -7443.00, -13511.90, -9302.62, -56412.02, -120720.34, -167673.06, -157494.00, 0.06, 0.00, 0.00
23, -7296.75, -7422.79, -13485.99, -9279.71, -56394.05, -120701.65, -167652.92, -157473.72, 0.06, 0.00, 0.00
24, -7269.70, -7398.63, -13455.82, -9253.15, -56372.28, -120679.43, -167629.19, -157450.31, 0.06, 0.00, 0.00
25, -7288.05, -7415.10, -13465.41, -9264.22, -56388.73, -120695.23, -167645.88, -157467.20, 0.06, 0.00, 0.00
26, -7316.60, -7440.52, -13484.00, -9283.42, -56413.61, -120719.20, -167671.25, -157491.97, 0.06, 0.00, 0.00
27, -7302.20, -7427.73, -13465.25, -9267.28, -56402.55, -120707.48, -167658.47, -157478.86, 0.06, 0.00, 0.00
28, -7270.55, -7399.21, -13431.07, -9236.88, -56376.82, -120681.34, -167630.30, -157451.20, 0.06, 0.00, 0.00
29, -7279.23, -7406.79, -13431.92, -9239.45, -56384.75, -120688.71, -167638.13, -157459.34, 0.06, 0.00, 0.00
30, -7311.23, -7435.46, -13453.63, -9261.58, -56412.76, -120715.82, -167666.84, -157487.61, 0.06, 0.00, 0.00
31, -7305.04, -7429.83, -13442.03, -9252.24, -56408.58, -120710.86, -167661.30, -157481.59, 0.06, 0.00, 0.00
32, -7269.06, -7397.35, -13403.85, -9217.90, -56378.90, -120680.73, -167629.11, -157449.73, 0.06, 0.00, 0.00
33, -7272.03, -7400.17, -13400.03, -9216.38, -56382.54, -120683.81, -167632.20, -157453.22, 0.06, 0.00, 0.00
34, -7304.37, -7428.94, -13421.82, -9238.60, -56410.64, -120710.95, -167661.08, -157481.69, 0.06, 0.00, 0.00
35, -7307.43, -7431.71, -13418.56, -9237.10, -56414.37, -120713.84, -167663.98, -157484.00, 0.06, 0.00, 0.00
36, -7272.85, -7400.64, -13381.85, -9204.31, -56386.09, -120685.20, -167633.14, -157453.45, 0.06, 0.00, 0.00
37, -7266.89, -7395.28, -13370.05, -9195.22, -56382.07, -120680.75, -167628.09, -157448.95, 0.06, 0.00, 0.00
38, -7301.33, -7426.39, -13394.15, -9219.80, -56412.47, -120710.28, -167659.25, -157479.92, 0.06, 0.00, 0.00
39, -7310.29, -7434.23, -13395.71, -9222.80, -56420.85, -120717.68, -167667.06, -157487.17, 0.06, 0.00, 0.00
40, -7277.53, -7404.55, -13360.49, -9191.33, -56393.89, -120690.34, -167637.81, -157457.78, 0.06, 0.00, 0.00
41, -7261.57, -7390.18, -13339.83, -9173.76, -56381.29, -120677.34, -167623.81, -157444.23, 0.06, 0.00, 0.00
42, -7288.37, -7413.89, -13356.64, -9191.26, -56404.54, -120699.77, -167647.59, -157468.13, 0.06, 0.00, 0.00
43, -7308.60, -7432.09, -13368.24, -9203.89, -56422.82, -120717.01, -167665.72, -157485.63, 0.06, 0.00, 0.00
44, -7282.02, -7408.28, -13338.74, -9177.92, -56401.47, -120695.19, -167642.14, -157461.98, 0.06, 0.00, 0.00
45, -7259.42, -7388.01, -13312.41, -9155.10, -56383.37, -120676.70, -167622.19, -157442.55, 0.06, 0.00, 0.00
46, -7284.23, -7410.36, -13327.83, -9171.59, -56405.45, -120698.05, -167644.67, -157465.06, 0.06, 0.00, 0.00
47, -7310.12, -7433.50, -13344.26, -9188.82, -56428.23, -120719.84, -167667.78, -157487.64, 0.06, 0.00, 0.00
48, -7291.97, -7417.36, -13322.56, -9170.29, -56414.39, -120705.32, -167652.06, -157471.59, 0.06, 0.00, 0.00
49, -7261.95, -7390.31, -13289.54, -9141.21, -56389.89, -120680.46, -167625.42, -157445.38, 0.06, 0.00, 0.00
50, -7278.76, -7405.51, -13297.97, -9151.18, -56405.14, -120695.10, -167640.73, -157460.97, 0.06, 0.00, 0.00
51, -7309.62, -7433.27, -13318.93, -9172.62, -56432.27, -120721.25, -167668.39, -157488.13, 0.06, 0.00, 0.00
52, -7297.06, -7421.92, -13301.79, -9158.11, -56422.77, -120710.91, -167657.17, -157476.45, 0.06, 0.00, 0.00
53, -7261.84, -7390.05, -13264.11, -9124.47, -56393.63, -120681.38, -167625.69, -157445.33, 0.06, 0.00, 0.00
54, -7270.46, -7398.00, -13265.33, -9127.69, -56402.03, -120689.38, -167633.88, -157453.81, 0.06, 0.00, 0.00
55, -7303.54, -7427.53, -13287.96, -9150.80, -56430.89, -120717.30, -167663.41, -157483.02, 0.06, 0.00, 0.00
56, -7299.54, -7423.82, -13278.28, -9143.45, -56428.52, -120714.10, -167659.73, -157478.94, 0.06, 0.00, 0.00
57, -7265.52, -7393.31, -13242.13, -9111.38, -56400.96, -120685.98, -167629.63, -157449.08, 0.06, 0.00, 0.00
58, -7264.32, -7392.15, -13234.49, -9106.21, -56400.91, -120685.38, -167628.78, -157448.63, 0.06, 0.00, 0.00
59, -7299.83, -7424.13, -13259.55, -9131.74, -56432.12, -120715.76, -167660.73, -157480.31, 0.06, 0.00, 0.00
60, -7305.42, -7429.09, -13258.41, -9132.48, -56437.91, -120720.72, -167665.81, -157484.84, 0.06, 0.00, 0.00
61, -7270.91, -7398.00, -13221.77, -9099.69, -56409.63, -120692.02, -167635.22, -157454.31, 0.06, 0.00, 0.00
62, -7259.49, -7387.61, -13204.92, -9085.80, -56400.60, -120682.48, -167625.03, -157444.59, 0.06, 0.00, 0.00
63, -7288.03, -7412.87, -13223.20, -9104.74, -56425.19, -120706.21, -167650.23, -157469.78, 0.06, 0.00, 0.00
64, -7302.52, -7425.90, -13230.02, -9112.92, -56438.69, -120718.88, -167663.38, -157482.36, 0.06, 0.00, 0.00
65, -7274.22, -7400.68, -13199.13, -9085.89, -56416.05, -120695.73, -167638.41, -157457.27, 0.06, 0.00, 0.00
66, -7255.40, -7383.65, -13175.82, -9066.02, -56400.89, -120680.06, -167621.72, -157441.08, 0.06, 0.00, 0.00
67, -7279.78, -7405.29, -13190.52, -9081.71, -56422.11, -120700.51, -167643.47, -157462.80, 0.06, 0.00, 0.00
68, -7300.33, -7423.60, -13202.35, -9094.57, -56440.52, -120717.88, -167661.66, -157480.47, 0.06, 0.00, 0.00
69, -7278.58, -7404.44, -13177.56, -9073.27, -56423.80, -120700.51, -167642.80, -157461.39, 0.06, 0.00, 0.00
70, -7254.86, -7383.27, -13150.36, -9049.68, -56404.76, -120681.18, -167621.94, -157440.97, 0.06, 0.00, 0.00
71, -7274.91, -7401.18, -13161.40, -9062.04, -56422.53, -120698.23, -167640.00, -157459.20, 0.06, 0.00, 0.00
72, -7301.78, -7425.09, -13178.70, -9080.19, -56446.18, -120720.96, -167664.00, -157482.66, 0.06, 0.00, 0.00
73, -7279.74, -7404.89, -13152.66, -9057.37, -56428.00, -120702.14, -167643.94, -157462.41, 0.06, 0.00, 0.00
74, -7249.54, -7377.68, -13119.51, -9028.29, -56403.44, -120677.13, -167617.09, -157436.05, 0.06, 0.00, 0.00
75, -7264.23, -7390.92, -13126.02, -9036.54, -56416.92, -120690.03, -167630.64, -157449.80, 0.06, 0.00, 0.00
76, -7296.08, -7419.48, -13147.79, -9058.87, -56444.81, -120716.94, -167659.13, -157477.84, 0.06, 0.00, 0.00
77, -7287.67, -7412.04, -13134.47, -9048.34, -56438.98, -120710.34, -167651.80, -157470.05, 0.06, 0.00, 0.00
78, -7253.25, -7381.02, -13097.74, -9015.73, -56410.79, -120681.71, -167621.17, -157439.73, 0.06, 0.00, 0.00
79, -7258.42, -7385.60, -13095.71, -9015.96, -56416.23, -120686.43, -167626.09, -157445.06, 0.06, 0.00, 0.00
80, -7293.28, -7416.89, -13120.00, -9040.92, -56446.69, -120716.11, -167657.41, -157476.03, 0.06, 0.00, 0.00
81, -7290.96, -7414.65, -13111.76, -9034.93, -56445.62, -120714.30, -167655.20, -157473.23, 0.06, 0.00, 0.00
82, -7259.42, -7386.54, -13078.05, -9005.38, -56420.41, -120688.62, -167627.39, -157445.75, 0.06, 0.00, 0.00
83, -7256.92, -7384.46, -13069.53, -8999.55, -56419.54, -120687.16, -167625.69, -157444.44, 0.06, 0.00, 0.00
84, -7288.88, -7413.00, -13091.06, -9021.63, -56447.18, -120713.99, -167654.28, -157472.75, 0.06, 0.00, 0.00
85, -7293.78, -7417.02, -13088.94, -9021.37, -56452.01, -120718.02, -167658.34, -157476.23, 0.06, 0.00, 0.00
86, -7261.77, -7388.41, -13054.76, -8991.28, -56426.20, -120691.64, -167630.08, -157448.00, 0.06, 0.00, 0.00
87, -7250.93, -7378.69, -13038.80, -8978.58, -56418.17, -120683.10, -167620.73, -157439.20, 0.06, 0.00, 0.00
88, -7278.49, -7403.10, -13056.08, -8996.93, -56441.86, -120706.08, -167645.19, -157463.55, 0.06, 0.00, 0.00
89, -7293.20, -7416.24, -13062.92, -9005.16, -56455.23, -120718.52, -167658.28, -157475.98, 0.06, 0.00, 0.00
90, -7261.88, -7387.85, -13028.97, -8975.03, -56429.48, -120692.29, -167630.19, -157447.89, 0.06, 0.00, 0.00
91, -7242.95, -7370.96, -13005.88, -8955.56, -56414.66, -120676.93, -167613.63, -157431.80, 0.06, 0.00, 0.00
92, -7269.35, -7394.67, -13022.60, -8973.49, -56438.02, -120699.48, -167637.45, -157455.67, 0.06, 0.00, 0.00
93, -7292.70, -7415.59, -13036.99, -8989.07, -56458.70, -120719.42, -167658.39, -157476.11, 0.06, 0.00, 0.00
94, -7267.20, -7392.37, -13008.18, -8963.63, -56437.80, -120697.83, -167635.34, -157452.88, 0.06, 0.00, 0.00
95, -7239.31, -7367.11, -12977.04, -8936.34, -56415.11, -120674.63, -167610.55, -157428.53, 0.06, 0.00, 0.00
96, -7259.15, -7384.95, -12988.06, -8949.01, -56432.90, -120691.75, -167628.78, -157446.75, 0.06, 0.00, 0.00
97, -7289.15, -7412.04, -13008.25, -8970.25, -56459.48, -120717.41, -167655.75, -157473.33, 0.06, 0.00, 0.00
98, -7272.03, -7396.55, -12987.01, -8952.10, -56445.98, -120703.28, -167640.31, -157457.70, 0.06, 0.00, 0.00
99, -7241.00, -7368.63, -12953.44, -8922.62, -56420.85, -120677.76, -167612.86, -157430.59, 0.06, 0.00, 0.00
100, -7252.90, -7379.23, -12957.33, -8928.49, -56431.85, -120688.04, -167623.70, -157441.69, 0.06, 0.00, 0.00
101, -7284.37, -7407.30, -12978.61, -8950.58, -56459.41, -120714.57, -167651.84, -157469.44, 0.06, 0.00, 0.00
102, -7278.31, -7402.03, -12967.41, -8942.08, -56455.63, -120709.98, -167646.66, -157463.81, 0.06, 0.00, 0.00
103, -7247.60, -7374.85, -12934.53, -8913.58, -56431.16, -120685.31, -167619.84, -157437.34, 0.06, 0.00, 0.00
104, -7252.16, -7379.03, -12932.21, -8913.67, -56436.19, -120689.83, -167624.42, -157442.20, 0.06, 0.00, 0.00
105, -7284.88, -7408.33, -12954.49, -8936.61, -56464.66, -120717.32, -167653.64, -157471.03, 0.06, 0.00, 0.00
106, -7283.79, -7407.17, -12947.25, -8931.71, -56464.55, -120716.27, -167652.52, -157469.39, 0.06, 0.00, 0.00
107, -7250.37, -7377.08, -12911.64, -8900.42, -56437.44, -120688.71, -167622.88, -157440.05, 0.06, 0.00, 0.00
108, -7243.48, -7370.62, -12898.90, -8890.56, -56432.36, -120683.19, -167616.86, -157434.39, 0.06, 0.00, 0.00
109, -7275.43, -7399.32, -12920.60, -8913.00, -56460.26, -120710.21, -167645.55, -157462.88, 0.06, 0.00, 0.00
110, -7284.48, -7407.28, -12922.37, -8916.67, -56468.93, -120717.95, -167653.48, -157470.31, 0.06, 0.00, 0.00
111, -7253.65, -7379.70, -12889.11, -8887.59, -56444.05, -120692.64, -167626.23, -157443.09, 0.06, 0.00, 0.00
112, -7242.14, -7369.59, -12872.79, -8874.74, -56435.67, -120683.86, -167616.63, -157434.00, 0.06, 0.00, 0.00
113, -7271.92, -7396.35, -12892.62, -8895.68, -56461.84, -120709.18, -167643.42, -157460.70, 0.06, 0.00, 0.00
114, -7288.32, -7410.99, -12900.85, -8905.38, -56476.69, -120723.11, -167658.00, -157474.72, 0.06, 0.00, 0.00
115, -7259.09, -7384.44, -12868.61, -8876.97, -56452.64, -120698.41, -167631.58, -157448.23, 0.06, 0.00, 0.00
116, -7236.58, -7364.05, -12842.33, -8854.40, -56434.46, -120679.86, -167611.69, -157428.84, 0.06, 0.00, 0.00
117, -7258.33, -7383.27, -12854.64, -8868.17, -56453.60, -120698.19, -167631.23, -157448.34, 0.06, 0.00, 0.00
118, -7281.95, -7404.24, -12869.02, -8883.68, -56474.30, -120718.02, -167652.20, -157468.69, 0.06, 0.00, 0.00
119, -7262.10, -7386.51, -12845.70, -8863.96, -56458.87, -120701.92, -167634.72, -157451.09, 0.07, 0.00, 0.00
120, -7234.32, -7361.68, -12814.97, -8837.34, -56436.57, -120679.16, -167610.36, -157427.13, 0.07, 0.00, 0.00
121, -7254.06, -7379.70, -12826.19, -8850.33, -56454.61, -120696.55, -167628.56, -157445.44, 0.07, 0.00, 0.00
122, -7284.19, -7406.56, -12846.40, -8871.50, -56481.00, -120721.99, -167655.38, -157471.81, 0.07, 0.00, 0.00
123, -7267.94, -7391.54, -12825.63, -8854.00, -56467.86, -120708.22, -167640.52, -157456.77, 0.07, 0.00, 0.00
124, -7235.17, -7362.08, -12790.47, -8823.08, -56441.06, -120681.06, -167611.50, -157428.00, 0.07, 0.01, 0.06
125, -7243.98, -7370.06, -12791.61, -8826.50, -56449.51, -120688.84, -167619.55, -157436.50, 0.07, 0.00, 0.00
126, -7276.95, -7399.57, -12814.28, -8850.04, -56478.41, -120716.83, -167649.13, -157465.69, 0.07, 0.00, 0.00
127, -7273.26, -7396.24, -12805.11, -8843.67, -56476.57, -120714.23, -167646.06, -157462.09, 0.07, 0.00, 0.00
128, -7241.27, -7367.81, -12771.05, -8813.96, -56450.91, -120688.13, -167617.94, -157434.33, 0.07, 0.00, 0.00
129, -7242.77, -7369.30, -12766.09, -8811.55, -56453.40, -120690.16, -167619.77, -157436.55, 0.07, 0.00, 0.00
130, -7276.30, -7399.23, -12789.11, -8835.55, -56482.70, -120718.51, -167649.80, -157466.22, 0.07, 0.00, 0.00
131, -7279.02, -7401.49, -12785.33, -8834.12, -56485.89, -120720.80, -167652.09, -157468.06, 0.07, 0.00, 0.00
132, -7242.95, -7368.79, -12747.13, -8800.26, -56456.08, -120690.50, -167619.77, -157435.89, 0.07, 0.00, 0.00
133, -7232.82, -7359.45, -12731.55, -8787.86, -56448.19, -120682.18, -167610.89, -157427.38, 0.07, 0.00, 0.00
134, -7263.89, -7387.27, -12752.38, -8809.72, -56475.30, -120708.49, -167638.72, -157455.00, 0.07, 0.00, 0.00
135, -7275.69, -7397.85, -12756.72, -8815.95, -56486.48, -120718.68, -167649.33, -157465.03, 0.07, 0.00, 0.00
136, -7247.51, -7372.77, -12726.10, -8789.60, -56464.04, -120695.77, -167624.53, -157440.45, 0.07, 0.00, 0.00
137, -7234.75, -7361.68, -12708.80, -8775.99, -56454.71, -120686.05, -167613.94, -157430.23, 0.07, 0.00, 0.00
138, -7260.74, -7384.64, -12724.89, -8793.44, -56477.29, -120707.84, -167637.00, -157453.28, 0.07, 0.00, 0.00
139, -7279.18, -7400.95, -12734.86, -8804.84, -56493.81, -120723.38, -167653.39, -157469.06, 0.07, 0.00, 0.00
140, -7254.17, -7378.65, -12706.99, -8780.82, -56474.00, -120702.97, -167631.34, -157446.95, 0.07, 0.00, 0.00
141, -7229.27, -7356.32, -12678.56, -8756.45, -56453.73, -120682.32, -167609.28, -157425.36, 0.07, 0.00, 0.00
142, -7252.90, -7377.66, -12693.04, -8772.52, -56474.96, -120702.81, -167630.77, -157446.89, 0.07, 0.00, 0.00
143, -7280.12, -7402.12, -12710.88, -8791.61, -56499.13, -120726.08, -167655.27, -157470.83, 0.07, 0.00, 0.00
144, -7256.02, -7379.92, -12683.03, -8767.38, -56479.10, -120705.36, -167633.30, -157448.59, 0.07, 0.00, 0.00
145, -7226.70, -7353.63, -12651.00, -8739.64, -56455.43, -120681.24, -167607.39, -157423.13, 0.07, 0.00, 0.00
146, -7241.29, -7366.71, -12657.26, -8747.98, -56468.62, -120693.85, -167620.70, -157436.70, 0.07, 0.00, 0.00
147, -7272.27, -7394.31, -12678.27, -8769.91, -56495.80, -120720.02, -167648.38, -157463.81, 0.07, 0.00, 0.00
148, -7260.52, -7383.61, -12661.84, -8756.61, -56486.86, -120710.44, -167637.86, -157452.98, 0.07, 0.00, 0.00
149, -7227.64, -7354.08, -12626.59, -8725.88, -56460.19, -120683.28, -167608.70, -157424.25, 0.07, 0.00, 0.00
150, -7234.72, -7360.45, -12626.32, -8728.11, -56467.23, -120689.67, -167615.38, -157431.28, 0.07, 0.00, 0.00
151, -7265.81, -7388.15, -12647.22, -8750.04, -56494.17, -120715.64, -167643.08, -157458.61, 0.07, 0.00, 0.00
152, -7263.80, -7386.38, -12639.38, -8745.16, -56493.68, -120714.34, -167641.45, -157456.39, 0.07, 0.00, 0.00
153, -7229.52, -7355.58, -12603.05, -8713.27, -56465.78, -120686.09, -167611.13, -157426.27, 0.07, 0.00, 0.00
154, -7226.90, -7353.10, -12594.07, -8707.17, -56464.26, -120684.15, -167608.86, -157424.47, 0.07, 0.00, 0.00
155, -7262.44, -7385.15, -12619.17, -8733.25, -56495.48, -120714.57, -167640.98, -157456.30, 0.07, 0.00, 0.00
156, -7271.22, -7393.31, -12621.27, -8737.50, -56504.56, -120722.75, -167649.28, -157464.08, 0.07, 0.00, 0.00
157, -7236.62, -7362.06, -12584.52, -8705.18, -56476.17, -120693.76, -167618.30, -157433.25, 0.07, 0.00, 0.00
158, -7225.00, -7351.42, -12567.65, -8691.90, -56467.16, -120684.24, -167608.14, -157423.59, 0.07, 0.00, 0.00
159, -7255.60, -7378.78, -12588.21, -8713.54, -56493.88, -120710.23, -167635.66, -157450.95, 0.07, 0.00, 0.00
160, -7270.06, -7391.88, -12594.94, -8722.19, -56507.38, -120722.80, -167648.83, -157463.52, 0.07, 0.00, 0.00
161, -7237.74, -7362.44, -12559.98, -8691.52, -56480.71, -120695.62, -167619.69, -157434.42, 0.07, 0.00, 0.00
162, -7220.60, -7347.06, -12538.57, -8674.02, -56467.34, -120681.89, -167604.86, -157419.91, 0.07, 0.00, 0.00
163, -7247.91, -7371.76, -12556.41, -8693.31, -56491.71, -120705.41, -167629.70, -157444.61, 0.07, 0.00, 0.00
164, -7270.78, -7392.44, -12570.58, -8709.02, -56512.36, -120725.14, -167650.38, -157464.84, 0.07, 0.00, 0.00
165, -7246.90, -7370.80, -12543.49, -8685.93, -56493.20, -120705.32, -167629.05, -157443.41, 0.07, 0.00, 0.00
166, -7222.27, -7348.83, -12515.64, -8662.22, -56473.51, -120685.22, -167607.44, -157422.30, 0.07, 0.00, 0.00
167, -7239.19, -7363.76, -12523.82, -8672.14, -56488.38, -120699.39, -167622.63, -157437.59, 0.07, 0.00, 0.00
168, -7266.26, -7387.92, -12541.25, -8691.01, -56512.27, -120722.23, -167646.77, -157461.22, 0.07, 0.00, 0.00
169, -7249.54, -7372.92, -12520.55, -8673.93, -56499.31, -120708.65, -167632.02, -157446.16, 0.07, 0.00, 0.00
170, -7218.99, -7345.43, -12487.41, -8645.14, -56474.50, -120683.41, -167605.00, -157419.58, 0.07, 0.00, 0.00
171, -7229.98, -7355.18, -12490.47, -8650.48, -56484.51, -120692.82, -167614.98, -157429.80, 0.07, 0.00, 0.00
172, -7262.95, -7384.77, -12513.31, -8674.44, -56513.52, -120720.90, -167644.61, -157458.92, 0.07, 0.00, 0.00
173, -7255.58, -7378.22, -12501.00, -8665.30, -56508.76, -120715.29, -167638.28, -157452.13, 0.07, 0.00, 0.00
174, -7221.98, -7348.05, -12465.28, -8634.23, -56481.54, -120687.59, -167608.59, -157422.70, 0.07, 0.00, 0.00
175, -7223.95, -7349.57, -12460.27, -8632.02, -56483.82, -120689.45, -167610.42, -157424.98, 0.07, 0.00, 0.00
176, -7256.92, -7379.00, -12482.71, -8655.65, -56512.45, -120717.14, -167639.80, -157454.09, 0.07, 0.00, 0.00
177, -7254.21, -7376.32, -12474.15, -8649.70, -56510.95, -120714.84, -167637.23, -157451.05, 0.07, 0.00, 0.00
178, -7220.91, -7346.53, -12438.88, -8619.10, -56484.22, -120687.62, -167608.02, -157421.97, 0.07, 0.00, 0.00
179, -7218.47, -7344.49, -12430.48, -8613.94, -56483.41, -120686.38, -167606.38, -157420.84, 0.07, 0.00, 0.00
180, -7252.67, -7375.32, -12454.41, -8638.99, -56513.46, -120715.53, -167637.25, -157451.45, 0.07, 0.00, 0.00
181, -7260.43, -7382.13, -12455.08, -8642.10, -56521.05, -120722.33, -167644.27, -157457.73, 0.07, 0.00, 0.00
182, -7228.46, -7353.43, -12421.00, -8612.40, -56495.24, -120695.98, -167615.95, -157429.59, 0.07, 0.00, 0.00
183, -7216.19, -7342.48, -12403.85, -8598.89, -56485.96, -120686.25, -167605.28, -157419.58, 0.07, 0.00, 0.00
184, -7246.35, -7369.46, -12423.86, -8620.35, -56512.36, -120711.84, -167632.36, -157446.55, 0.07, 0.00, 0.00
185, -7261.61, -7382.94, -12431.01, -8629.43, -56526.15, -120724.70, -167646.02, -157459.50, 0.07, 0.00, 0.00
186, -7231.82, -7356.12, -12398.69, -8601.31, -56501.79, -120699.95, -167619.45, -157432.92, 0.07, 0.00, 0.00
187, -7210.81, -7337.21, -12373.86, -8580.57, -56485.05, -120682.83, -167601.06, -157414.88, 0.07, 0.00, 0.00
188, -7236.58, -7360.41, -12390.26, -8598.63, -56508.05, -120705.05, -167624.42, -157438.31, 0.07, 0.00, 0.00
189, -7260.38, -7381.80, -12405.08, -8615.05, -56529.26, -120725.32, -167645.72, -157459.16, 0.07, 0.00, 0.00
190, -7238.99, -7362.60, -12380.16, -8594.27, -56512.41, -120707.80, -167626.86, -157440.08, 0.07, 0.00, 0.00
191, -7210.81, -7337.23, -12349.03, -8567.51, -56489.47, -120684.46, -167601.98, -157415.59, 0.07, 0.00, 0.00
192, -7226.39, -7350.93, -12356.02, -8576.59, -56503.29, -120697.67, -167616.00, -157429.67, 0.07, 0.00, 0.00
193, -7255.64, -7377.06, -12375.65, -8597.55, -56529.15, -120722.59, -167642.25, -157455.45, 0.07, 0.00, 0.00
194, -7238.21, -7361.19, -12353.96, -8579.47, -56515.11, -120707.84, -167626.50, -157439.45, 0.07, 0.00, 0.00
195, -7206.81, -7333.03, -12320.06, -8550.26, -56489.65, -120682.00, -167598.83, -157412.20, 0.07, 0.00, 0.00
196, -7221.04, -7346.17, -12326.54, -8559.24, -56503.24, -120695.03, -167612.23, -157426.02, 0.07, 0.00, 0.00
197, -7252.40, -7374.20, -12347.86, -8581.71, -56530.62, -120721.50, -167640.30, -157453.66, 0.06, 0.00, 0.00
198, -7242.99, -7365.37, -12333.22, -8570.24, -56523.38, -120713.48, -167631.75, -157444.52, 0.06, 0.00, 0.00
199, -7208.73, -7334.46, -12296.79, -8538.63, -56495.39, -120685.13, -167601.36, -157414.44, 0.06, 0.00, 0.00
200, -7209.89, -7335.51, -12291.27, -8536.26, -56497.32, -120686.48, -167602.67, -157416.17, 0.06, 0.00, 0.00
201, -7246.35, -7368.48, -12317.35, -8563.62, -56529.62, -120717.88, -167635.70, -157448.91, 0.06, 0.00, 0.00
202, -7252.16, -7374.00, -12317.00, -8565.79, -56536.21, -120723.71, -167641.31, -157454.11, 0.06, 0.00, 0.00
203, -7219.41, -7344.60, -12282.19, -8535.71, -56509.84, -120696.82, -167612.42, -157425.39, 0.06, 0.00, 0.00
204, -7210.27, -7336.09, -12267.29, -8524.33, -56502.66, -120689.24, -167604.34, -157417.72, 0.06, 0.00, 0.00
205, -7241.79, -7364.18, -12288.54, -8546.82, -56530.04, -120715.80, -167632.58, -157445.69, 0.06, 0.00, 0.00
206, -7250.75, -7371.96, -12290.33, -8550.86, -56538.54, -120723.38, -167640.47, -157453.11, 0.06, 0.00, 0.00
207, -7220.08, -7344.72, -12257.45, -8522.65, -56513.97, -120698.25, -167613.58, -157426.22, 0.06, 0.00, 0.00
208, -7206.34, -7332.51, -12239.14, -8508.24, -56503.58, -120687.50, -167601.78, -157414.88, 0.06, 0.00, 0.00
209, -7234.63, -7357.79, -12257.70, -8528.24, -56528.50, -120711.69, -167627.27, -157440.30, 0.06, 0.00, 0.00
210, -7253.30, -7374.53, -12268.09, -8540.65, -56545.42, -120727.67, -167644.00, -157456.61, 0.06, 0.00, 0.00
211, -7226.41, -7350.30, -12238.41, -8515.28, -56523.83, -120705.38, -167620.28, -157432.73, 0.06, 0.00, 0.00
212, -7202.27, -7328.51, -12210.67, -8491.83, -56504.34, -120685.45, -167598.98, -157411.80, 0.06, 0.00, 0.00
213, -7223.75, -7347.49, -12222.87, -8505.98, -56523.18, -120703.57, -167618.16, -157431.09, 0.06, 0.00, 0.00
214, -7249.25, -7370.13, -12239.19, -8523.86, -56545.71, -120725.21, -167641.13, -157453.42, 0.06, 0.00, 0.00
215, -7228.49, -7351.40, -12214.94, -8503.45, -56529.19, -120708.05, -167622.63, -157434.70, 0.06, 0.00, 0.00
216, -7199.43, -7325.20, -12183.11, -8476.21, -56505.63, -120684.04, -167597.00, -157409.50, 0.06, 0.00, 0.00
217, -7218.09, -7342.19, -12193.41, -8488.86, -56522.82, -120700.66, -167614.19, -157426.95, 0.06, 0.00, 0.00
218, -7249.65, -7370.62, -12215.09, -8512.01, -56550.63, -120727.65, -167642.59, -157454.89, 0.06, 0.00, 0.00
219, -7238.08, -7360.25, -12199.00, -8499.50, -56542.11, -120718.39, -167632.47, -157444.41, 0.06, 0.00, 0.00
220, -7206.92, -7332.36, -12165.65, -8470.86, -56517.23, -120693.02, -167605.11, -157417.55, 0.06, 0.00, 0.00
221, -7213.02, -7337.79, -12164.62, -8472.52, -56523.34, -120698.50, -167610.92, -157423.52, 0.06, 0.00, 0.00
222, -7244.69, -7365.99, -12186.08, -8495.25, -56550.83, -120725.21, -167639.19, -157451.47, 0.06, 0.00, 0.00
223, -7242.21, -7363.98, -12178.15, -8490.47, -56550.09, -120723.73, -167637.27, -157449.06, 0.06, 0.00, 0.00
224, -7208.59, -7333.88, -12142.54, -8459.71, -56523.04, -120696.09, -167607.66, -157419.67, 0.06, 0.00, 0.00
225, -7206.00, -7331.19, -12133.58, -8453.99, -56521.55, -120694.05, -167605.42, -157417.86, 0.06, 0.00, 0.00
226, -7237.92, -7359.47, -12155.12, -8476.88, -56549.04, -120720.85, -167633.73, -157445.86, 0.06, 0.00, 0.00
227, -7240.65, -7361.79, -12151.28, -8475.74, -56552.13, -120723.16, -167636.13, -157447.77, 0.06, 0.00, 0.00
228, -7204.39, -7329.05, -12112.88, -8442.19, -56522.26, -120692.71, -167603.80, -157415.55, 0.06, 0.00, 0.00
229, -7195.63, -7321.25, -12099.00, -8431.90, -56516.14, -120686.05, -167596.41, -157408.59, 0.06, 0.00, 0.00
230, -7226.36, -7348.83, -12119.72, -8454.17, -56542.98, -120712.24, -167624.16, -157436.23, 0.06, 0.00, 0.00
231, -7240.22, -7361.21, -12126.02, -8462.75, -56555.90, -120724.20, -167636.67, -157448.31, 0.06, 0.00, 0.00
232, -7211.03, -7335.06, -12094.44, -8435.79, -56532.52, -120700.22, -167610.94, -157422.58, 0.06, 0.00, 0.00
233, -7194.51, -7320.42, -12073.65, -8419.25, -56519.74, -120687.10, -167596.80, -157408.73, 0.06, 0.00, 0.00
234, -7222.12, -7345.16, -12091.51, -8438.92, -56544.19, -120710.70, -167621.69, -157433.56, 0.06, 0.00, 0.00
235, -7242.55, -7363.54, -12103.45, -8452.85, -56562.63, -120728.18, -167640.09, -157451.42, 0.06, 0.00, 0.00
236, -7216.57, -7340.18, -12074.66, -8428.40, -56541.82, -120706.81, -167617.11, -157428.30, 0.06, 0.00, 0.00
237, -7190.02, -7316.02, -12044.68, -8402.85, -56519.96, -120684.57, -167593.39, -157405.03, 0.06, 0.00, 0.00
238, -7210.25, -7334.01, -12055.99, -8416.35, -56537.82, -120701.80, -167611.64, -157423.42, 0.06, 0.00, 0.00
239, -7240.09, -7361.14, -12076.63, -8438.50, -56564.62, -120727.60, -167638.70, -157450.06, 0.06, 0.00, 0.00
240, -7223.35, -7346.24, -12056.13, -8422.16, -56551.88, -120714.23, -167624.13, -157435.11, 0.06, 0.00, 0.00
241, -7193.57, -7319.57, -12023.83, -8394.62, -56527.92, -120689.85, -167598.05, -157409.45, 0.06, 0.00, 0.00
242, -7204.68, -7329.18, -12026.85, -8400.19, -56537.89, -120699.21, -167607.98, -157419.63, 0.06, 0.00, 0.00
243, -7235.68, -7356.90, -12048.01, -8422.76, -56565.09, -120725.43, -167635.81, -157446.98, 0.06, 0.00, 0.00
244, -7225.18, -7347.40, -12032.66, -8411.05, -56557.33, -120716.85, -167626.55, -157437.25, 0.06, 0.00, 0.00
245, -7191.27, -7316.98, -11996.56, -8379.87, -56529.73, -120688.89, -167596.56, -157407.64, 0.06, 0.00, 0.00
246, -7197.19, -7322.27, -11995.55, -8381.72, -56535.72, -120694.43, -167602.30, -157413.63, 0.06, 0.00, 0.00
247, -7229.76, -7351.47, -12017.93, -8405.53, -56564.30, -120722.08, -167631.50, -157442.55, 0.06, 0.00, 0.00
248, -7227.08, -7348.83, -12009.41, -8400.25, -56563.01, -120719.94, -167629.06, -157439.56, 0.06, 0.00, 0.00
249, -7194.15, -7319.35, -11974.54, -8370.42, -56536.59, -120693.11, -167600.13, -157410.75, 0.06, 0.00, 0.00
250, -7191.83, -7317.29, -11966.25, -8365.61, -56535.58, -120691.73, -167598.42, -157409.50, 0.06, 0.00, 0.00
251, -7222.34, -7344.36, -11986.46, -8387.38, -56562.00, -120717.34, -167625.56, -157436.50, 0.06, 0.00, 0.00
252, -7229.43, -7350.64, -11986.82, -8390.33, -56569.16, -120723.60, -167632.02, -157442.53, 0.06, 0.00, 0.00
253, -7197.24, -7321.81, -11952.51, -8360.76, -56543.18, -120697.00, -167603.50, -157414.05, 0.06, 0.00, 0.00
254, -7184.95, -7310.67, -11935.38, -8347.53, -56533.84, -120687.16, -167592.95, -157403.89, 0.06, 0.00, 0.00
255, -7214.14, -7336.80, -11954.70, -8368.65, -56559.43, -120711.98, -167619.23, -157430.03, 0.06, 0.00, 0.00
0, -7229.87, -7350.91, -11962.54, -8378.77, -56574.01, -120725.59, -167633.47, -157443.67, 0.06, 0.00, 0.00
1, -7203.25, -7327.17, -11933.46, -8354.32, -56552.91, -120703.91, -167610.09, -157420.22, 0.06, 0.00, 0.00
2, -7183.22, -7309.06, -11909.41, -8334.67, -56536.81, -120687.57, -167592.41, -157403.13, 0.06, 0.00, 0.00
3, -7208.42, -7331.57, -11925.08, -8352.42, -56558.98, -120709.01, -167615.09, -157425.83, 0.06, 0.00, 0.00
4, -7231.48, -7352.23, -11939.41, -8368.67, -56579.75, -120728.72, -167635.91, -157446.06, 0.06, 0.00, 0.00
5, -7207.97, -7331.06, -11912.85, -8346.34, -56561.02, -120709.43, -167615.13, -157425.09, 0.06, 0.00, 0.00
6, -7183.67, -7309.38, -11885.41, -8323.68, -56541.75, -120689.83, -167593.91, -157404.38, 0.06, 0.00, 0.00
7, -7203.16, -7326.95, -11896.31, -8336.98, -56559.39, -120706.77, -167611.80, -157422.34, 0.06, 0.00, 0.00
8, -7234.07, -7354.93, -11917.82, -8360.13, -56587.02, -120733.44, -167639.73, -157449.81, 0.06, 0.00, 0.00
9, -7217.98, -7340.42, -11897.65, -8344.08, -56574.54, -120720.25, -167625.42, -157435.17, 0.06, 0.00, 0.00
10, -7185.73, -7311.37, -11863.01, -8314.45, -56548.26, -120693.41, -167596.81, -157406.97, 0.06, 0.00, 0.00
11, -7194.83, -7319.23, -11864.31, -8318.47, -56556.44, -120701.16, -167604.97, -157415.38, 0.06, 0.00, 0.00
12, -7226.85, -7347.87, -11886.30, -8341.92, -56584.54, -120728.36, -167633.70, -157443.61, 0.06, 0.00, 0.00
13, -7216.77, -7338.57, -11871.46, -8330.47, -56576.89, -120719.89, -167624.58, -157434.19, 0.06, 0.00, 0.00
14, -7180.21, -7305.49, -11832.79, -8297.01, -56546.71, -120689.27, -167591.98, -157401.84, 0.06, 0.00, 0.00
15, -7184.50, -7309.44, -11830.26, -8297.73, -56551.45, -120693.42, -167596.25, -157406.52, 0.06, 0.00, 0.00
16, -7219.19, -7340.63, -11854.63, -8323.72, -56581.96, -120723.00, -167627.39, -157437.38, 0.06, 0.00, 0.00
17, -7225.18, -7346.46, -11854.72, -8326.90, -56589.07, -120729.32, -167633.52, -157443.02, 0.06, 0.00, 0.00
18, -7190.58, -7315.32, -11818.31, -8295.45, -56560.98, -120700.82, -167602.88, -157412.63, 0.06, 0.00, 0.00
19, -7183.78, -7309.15, -11805.90, -8286.75, -56556.04, -120695.41, -167597.11, -157407.17, 0.06, 0.00, 0.00
20, -7215.52, -7337.47, -11827.49, -8310.02, -56583.77, -120722.30, -167625.63, -157435.48, 0.06, 0.00, 0.00
21, -7224.66, -7345.70, -11829.66, -8314.78, -56592.65, -120730.24, -167633.92, -157443.14, 0.06, 0.00, 0.00
22, -7193.35, -7317.65, -11796.27, -8286.13, -56567.39, -120704.47, -167606.09, -157415.53, 0.06, 0.00, 0.00
23, -7180.25, -7305.98, -11778.52, -8272.58, -56557.42, -120694.05, -167594.77, -157404.75, 0.06, 0.00, 0.00
24, -7209.47, -7331.98, -11797.90, -8293.82, -56583.11, -120718.84, -167621.14, -157430.95, 0.06, 0.00, 0.00
25, -7225.36, -7346.06, -11805.83, -8304.05, -56597.50, -120732.30, -167635.33, -157444.47, 0.06, 0.00, 0.00
26, -7195.85, -7319.44, -11773.76, -8276.65, -56573.52, -120707.73, -167608.95, -157418.14, 0.06, 0.00, 0.00
27, -7174.78, -7300.44, -11748.88, -8256.49, -56556.80, -120690.56, -167590.52, -157400.33, 0.06, 0.00, 0.00
28, -7202.83, -7326.10, -11767.83, -8277.54, -56582.32, -120715.24, -167616.52, -157426.22, 0.06, 0.00, 0.00
29, -7226.12, -7346.77, -11782.25, -8293.70, -56602.73, -120734.91, -167637.16, -157446.28, 0.06, 0.00, 0.00
30, -7205.02, -7327.77, -11758.00, -8273.74, -56586.14, -120717.79, -167618.56, -157427.48, 0.06, 0.00, 0.00
31, -7174.87, -7300.50, -11724.90, -8245.65, -56561.40, -120692.62, -167591.78, -157401.09, 0.06, 0.00, 0.00
32, -7192.34, -7316.24, -11733.93, -8257.34, -56577.23, -120707.66, -167607.77, -157417.20, 0.06, 0.00, 0.00
33, -7223.21, -7343.89, -11755.16, -8280.18, -56604.45, -120733.88, -167635.42, -157444.39, 0.06, 0.00, 0.00
34, -7209.31, -7331.24, -11737.21, -8266.01, -56593.83, -120722.62, -167623.03, -157431.84, 0.06, 0.00, 0.00
35, -7177.57, -7302.87, -11703.19, -8237.09, -56568.26, -120696.53, -167595.09, -157404.27, 0.06, 0.00, 0.00
36, -7188.34, -7312.57, -11706.41, -8243.41, -56578.50, -120706.28, -167605.16, -157414.59, 0.06, 0.00, 0.00
37, -7220.33, -7341.21, -11728.43, -8267.06, -56606.59, -120733.41, -167633.77, -157442.89, 0.06, 0.00, 0.00
38, -7216.28, -7337.81, -11719.29, -8261.43, -56604.65, -120730.64, -167630.48, -157439.17, 0.06, 0.00, 0.00
39, -7181.37, -7306.43, -11682.47, -8229.69, -56576.15, -120701.70, -167599.55, -157408.41, 0.06, 0.00, 0.00
40, -7181.68, -7306.74, -11676.44, -8227.23, -56577.45, -120702.50, -167600.33, -157409.47, 0.06, 0.00, 0.00
41, -7213.27, -7334.79, -11697.92, -8250.18, -56604.81, -120728.95, -167628.48, -157437.30, 0.06, 0.00, 0.00
42, -7216.13, -7337.18, -11694.43, -8249.80, -56608.18, -120731.54, -167630.92, -157439.41, 0.06, 0.00, 0.00
43, -7178.31, -7302.76, -11654.78, -8215.16, -56576.82, -120699.57, -167597.00, -157405.58, 0.06, 0.00, 0.00
44, -7168.79, -7294.00, -11639.87, -8204.25, -56569.56, -120691.75, -167588.72, -157397.72, 0.06, 0.00, 0.00
45, -7201.31, -7323.15, -11662.27, -8228.53, -56598.17, -120719.55, -167618.09, -157426.81, 0.06, 0.00, 0.00
46, -7212.21, -7332.78, -11665.84, -8234.76, -56608.52, -120729.01, -167627.86, -157435.98, 0.06, 0.00, 0.00
47, -7181.70, -7305.38, -11633.17, -8207.02, -56583.86, -120703.88, -167600.80, -157409.06, 0.06, 0.00, 0.00
48, -7168.11, -7293.46, -11615.33, -8193.61, -56573.85, -120693.36, -167589.28, -157398.16, 0.06, 0.00, 0.00
49, -7195.99, -7318.36, -11633.48, -8213.89, -56598.32, -120717.12, -167614.41, -157423.22, 0.06, 0.00, 0.00
50, -7214.63, -7335.08, -11644.05, -8226.69, -56615.20, -120733.10, -167631.19, -157439.45, 0.06, 0.00, 0.00
51, -7186.38, -7309.42, -11613.05, -8200.41, -56592.09, -120709.48, -167605.98, -157414.02, 0.06, 0.00, 0.00
52, -7162.88, -7288.30, -11586.16, -8178.17, -56573.25, -120690.23, -167585.27, -157393.80, 0.06, 0.00, 0.00
53, -7184.74, -7307.90, -11599.17, -8193.50, -56592.71, -120708.98, -167605.09, -157413.73, 0.06, 0.00, 0.00
54, -7209.24, -7329.74, -11614.59, -8210.91, -56614.48, -120729.68, -167626.97, -157435.11, 0.06, 0.00, 0.00
55, -7189.80, -7312.33, -11591.64, -8192.27, -56599.20, -120713.74, -167609.73, -157417.63, 0.06, 0.00, 0.00
56, -7164.54, -7289.93, -11563.61, -8169.36, -56579.37, -120693.58, -167587.97, -157396.22, 0.06, 0.00, 0.00
57, -7180.72, -7304.42, -11571.61, -8180.20, -56594.26, -120707.75, -167602.81, -157411.31, 0.06, 0.00, 0.00
58, -7210.94, -7331.55, -11592.22, -8202.55, -56620.97, -120733.44, -167630.02, -157437.97, 0.06, 0.00, 0.00
59, -7196.19, -7317.94, -11573.06, -8187.26, -56609.23, -120720.92, -167616.59, -157424.22, 0.06, 0.00, 0.00
60, -7164.23, -7289.26, -11539.00, -8158.41, -56583.42, -120694.70, -167588.44, -157396.42, 0.06, 0.00, 0.00
61, -7172.05, -7296.23, -11539.58, -8162.32, -56591.17, -120701.80, -167595.78, -157404.20, 0.06, 0.00, 0.00
62, -7202.78, -7323.55, -11560.30, -8184.67, -56617.77, -120727.60, -167623.22, -157431.09, 0.06, 0.00, 0.00
63, -7199.14, -7320.22, -11551.29, -8179.11, -56615.78, -120724.83, -167620.06, -157427.41, 0.06, 0.00, 0.00
64, -7165.23, -7289.80, -11515.55, -8148.62, -56588.38, -120696.94, -167589.97, -157397.67, 0.06, 0.00, 0.00
65, -7162.12, -7286.96, -11506.36, -8143.30, -56586.61, -120694.63, -167587.47, -157395.64, 0.06, 0.00, 0.00
66, -7194.49, -7315.86, -11528.58, -8167.33, -56614.80, -120722.02, -167616.59, -157424.42, 0.06, 0.00, 0.00
67, -7203.45, -7324.09, -11531.09, -8172.85, -56624.10, -120730.46, -167624.98, -157432.41, 0.06, 0.00, 0.00
68, -7170.04, -7294.13, -11495.86, -8142.65, -56597.07, -120702.86, -167595.39, -157402.92, 0.06, 0.00, 0.00
69, -7158.75, -7283.92, -11479.57, -8130.60, -56588.45, -120693.72, -167585.64, -157393.58, 0.06, 0.00, 0.00
70, -7188.34, -7310.25, -11499.21, -8152.24, -56614.22, -120718.59, -167612.08, -157419.84, 0.06, 0.00, 0.00
71, -7200.55, -7320.98, -11503.82, -8159.55, -56625.44, -120728.90, -167622.78, -157430.03, 0.06, 0.00, 0.00
72, -7172.27, -7295.65, -11473.22, -8134.07, -56602.93, -120705.92, -167597.98, -157405.27, 0.06, 0.00, 0.00
73, -7150.99, -7276.21, -11447.92, -8113.37, -56585.54, -120687.99, -167578.98, -157386.70, 0.06, 0.00, 0.00
74, -7178.58, -7301.02, -11466.02, -8133.73, -56609.99, -120711.69, -167603.95, -157411.73, 0.06, 0.00, 0.00
75, -7199.27, -7319.50, -11478.31, -8148.35, -56628.54, -120729.34, -167622.56, -157429.77, 0.06, 0.00, 0.00
76, -7172.52, -7295.14, -11448.65, -8123.36, -56606.71, -120706.93, -167598.58, -157405.58, 0.06, 0.00, 0.00
77, -7148.31, -7273.57, -11421.32, -8100.99, -56587.48, -120687.32, -167577.42, -157384.80, 0.06, 0.00, 0.00
78, -7171.27, -7294.42, -11435.73, -8117.95, -56608.47, -120707.59, -167598.61, -157406.14, 0.06, 0.00, 0.00
79, -7195.99, -7316.13, -11451.04, -8135.45, -56629.89, -120728.07, -167620.48, -157427.44, 0.06, 0.00, 0.00
80, -7178.73, -7300.53, -11429.92, -8118.82, -56616.39, -120713.99, -167605.20, -157411.91, 0.06, 0.00, 0.00
81, -7150.84, -7275.90, -11399.77, -8093.79, -56594.44, -120691.68, -167580.95, -157388.17, 0.06, 0.00, 0.00
82, -7163.33, -7287.09, -11404.49, -8101.50, -56605.97, -120702.55, -167592.41, -157399.89, 0.06, 0.00, 0.00
83, -7192.72, -7313.07, -11423.95, -8122.82, -56631.43, -120727.04, -167618.39, -157425.41, 0.06, 0.00, 0.00
84, -7180.90, -7302.20, -11407.57, -8110.38, -56622.40, -120717.16, -167607.81, -157414.45, 0.06, 0.00, 0.00
85, -7147.42, -7272.18, -11372.17, -8080.29, -56595.33, -120689.67, -167578.33, -157385.28, 0.06, 0.00, 0.00
86, -7155.22, -7279.49, -11373.15, -8084.76, -56603.42, -120697.13, -167586.00, -157393.30, 0.06, 0.00, 0.00
87, -7188.34, -7309.15, -11396.15, -8109.59, -56632.37, -120725.19, -167615.70, -157422.59, 0.06, 0.00, 0.00
88, -7186.62, -7307.46, -11388.79, -8105.73, -56632.08, -120723.98, -167614.30, -157420.67, 0.06, 0.00, 0.00
89, -7152.49, -7276.81, -11352.81, -8075.26, -56604.45, -120695.95, -167584.14, -157390.78, 0.06, 0.00, 0.00
90, -7149.94, -7274.51, -11344.56, -8070.92, -56603.58, -120694.55, -167582.41, -157389.44, 0.06, 0.00, 0.00
91, -7181.44, -7302.65, -11366.13, -8094.24, -56631.03, -120721.19, -167610.70, -157417.50, 0.06, 0.00, 0.00
92, -7190.38, -7310.72, -11368.30, -8099.29, -56639.88, -120729.21, -167618.77, -157425.08, 0.06, 0.00, 0.00
93, -7157.39, -7281.01, -11333.32, -8069.67, -56613.14, -120701.95, -167589.53, -157395.91, 0.07, 0.00, 0.00
94, -7142.61, -7267.56, -11313.89, -8054.65, -56601.34, -120689.72, -167576.36, -157383.30, 0.07, 0.00, 0.00
95, -7171.78, -7293.62, -11333.25, -8076.15, -56626.82, -120714.39, -167602.58, -157409.34, 0.06, 0.00, 0.00
96, -7189.68, -7309.85, -11343.44, -8088.94, -56643.50, -120730.06, -167619.02, -157425.14, 0.06, 0.00, 0.00
97, -7162.17, -7285.19, -11313.58, -8064.08, -56621.59, -120707.57, -167594.73, -157400.84, 0.07, 0.00, 0.00
98, -7141.40, -7266.48, -11289.08, -8044.37, -56604.98, -120690.63, -167576.52, -157383.13, 0.07, 0.00, 0.00
99, -7164.96, -7287.41, -11303.41, -8061.09, -56625.77, -120710.59, -167597.59, -157404.42, 0.07, 0.00, 0.00
100, -7188.79, -7308.80, -11318.57, -8078.46, -56647.16, -120731.05, -167619.09, -157425.31, 0.07, 0.00, 0.00
101, -7166.80, -7289.13, -11293.49, -8058.07, -56629.86, -120713.09, -167599.78, -157405.72, 0.07, 0.00, 0.00
102, -7140.22, -7265.34, -11264.18, -8033.84, -56608.61, -120691.46, -167576.47, -157382.97, 0.07, 0.00, 0.00
103, -7158.08, -7281.30, -11273.71, -8046.09, -56624.72, -120706.86, -167592.80, -157399.34, 0.07, 0.00, 0.00
104, -7185.21, -7305.38, -11291.45, -8065.92, -56648.46, -120729.59, -167616.95, -157422.95, 0.07, 0.00, 0.00
105, -7169.57, -7291.16, -11271.78, -8050.67, -56636.28, -120716.67, -167602.98, -157408.64, 0.07, 0.00, 0.00
106, -7139.97, -7264.92, -11239.98, -8024.21, -56612.65, -120692.76, -167577.11, -157383.30, 0.07, 0.00, 0.00
107, -7150.93, -7274.93, -11243.53, -8031.00, -56623.16, -120702.59, -167587.36, -157393.84, 0.07, 0.00, 0.00
108, -7178.69, -7299.23, -11261.41, -8050.74, -56646.94, -120725.43, -167611.84, -157417.83, 0.07, 0.00, 0.00
109, -7170.77, -7291.79, -11248.49, -8041.75, -56641.26, -120718.98, -167604.75, -157410.41, 0.07, 0.01, 0.12
110, -7139.50, -7263.96, -11215.37, -8013.97, -56616.32, -120693.70, -167577.33, -157383.34, 0.07, 0.00, 0.00
111, -7144.33, -7268.47, -11213.62, -8015.98, -56621.75, -120698.63, -167582.25, -157388.55, 0.07, 0.00, 0.00
112, -7179.69, -7300.24, -11238.90, -8043.16, -56653.04, -120728.90, -167614.20, -157420.22, 0.07, 0.00, 0.00
113, -7182.64, -7302.99, -11235.91, -8043.59, -56657.00, -120731.94, -167617.09, -157422.58, 0.07, 0.00, 0.00
114, -7148.51, -7272.41, -11200.10, -8013.17, -56629.28, -120703.87, -167587.05, -157392.55, 0.07, 0.00, 0.00
115, -7140.56, -7265.19, -11186.76, -8003.91, -56623.36, -120697.47, -167580.13, -157386.09, 0.07, 0.00, 0.00
116, -7168.85, -7290.07, -11205.06, -8024.19, -56647.72, -120720.88, -167605.25, -157410.97, 0.07, 0.00, 0.00
117, -7179.25, -7299.32, -11208.64, -8030.62, -56657.73, -120729.97, -167614.66, -157419.89, 0.07, 0.00, 0.00
118, -7149.38, -7272.61, -11176.74, -8003.94, -56633.86, -120705.61, -167588.33, -157393.72, 0.07, 0.00, 0.00
119, -7135.48, -7260.11, -11158.37, -7990.21, -56623.25, -120694.55, -167576.36, -157382.19, 0.07, 0.00, 0.00
120, -7163.87, -7285.66, -11177.21, -8011.40, -56648.28, -120718.77, -167602.03, -157407.69, 0.07, 0.00, 0.00
121, -7180.68, -7300.50, -11186.13, -8022.98, -56663.50, -120733.08, -167617.05, -157422.17, 0.07, 0.00, 0.00
122, -7151.35, -7273.93, -11154.39, -7996.25, -56639.68, -120708.55, -167590.80, -157395.92, 0.07, 0.00, 0.00
123, -7127.66, -7252.58, -11127.39, -7974.03, -56620.43, -120688.89, -167569.84, -157375.39, 0.07, 0.00, 0.00
124, -7149.72, -7272.23, -11140.49, -7989.79, -56639.90, -120707.66, -167589.81, -157395.38, 0.07, 0.00, 0.00
125, -7176.07, -7295.97, -11157.99, -8009.57, -56663.55, -120730.38, -167613.52, -157418.69, 0.07, 0.00, 0.00
126, -7154.55, -7276.52, -11133.36, -7989.50, -56646.56, -120712.65, -167594.38, -157399.38, 0.07, 0.00, 0.00
127, -7127.12, -7251.98, -11103.34, -7964.73, -56624.59, -120690.34, -167570.48, -157375.75, 0.07, 0.00, 0.00
128, -7144.71, -7267.83, -11112.82, -7977.18, -56640.66, -120705.80, -167586.59, -157392.08, 0.07, 0.00, 0.00
129, -7170.93, -7290.87, -11129.51, -7995.91, -56663.28, -120727.45, -167609.73, -157414.69, 0.07, 0.00, 0.00
130, -7155.42, -7276.61, -11109.91, -7980.51, -56650.98, -120714.44, -167595.88, -157400.47, 0.07, 0.00, 0.00
131, -7123.25, -7247.75, -11075.71, -7951.77, -56625.04, -120688.06, -167567.52, -157372.45, 0.07, 0.00, 0.00
132, -7132.80, -7256.45, -11078.11, -7957.56, -56634.38, -120696.82, -167576.59, -157381.88, 0.07, 0.00, 0.00
133, -7164.40, -7284.66, -11099.81, -7981.18, -56662.03, -120723.53, -167604.81, -157409.73, 0.07, 0.00, 0.00
134, -7160.49, -7281.15, -11090.71, -7975.95, -56659.99, -120720.74, -167601.48, -157405.88, 0.07, 0.00, 0.00
135, -7127.26, -7251.33, -11055.71, -7946.49, -56633.20, -120693.52, -167572.23, -157376.91, 0.07, 0.00, 0.00
136, -7125.65, -7249.63, -11048.06, -7942.71, -56632.75, -120692.58, -167571.17, -157376.14, 0.07, 0.00, 0.00
137, -7160.02, -7280.50, -11072.38, -7969.07, -56663.10, -120721.99, -167602.25, -157406.92, 0.07, 0.00, 0.00
138, -7168.03, -7288.08, -11074.26, -7974.25, -56671.73, -120729.68, -167609.84, -157414.17, 0.07, 0.00, 0.00
139, -7135.26, -7258.66, -11039.77, -7945.26, -56645.33, -120702.84, -167580.98, -157385.47, 0.07, 0.00, 0.00
140, -7126.63, -7250.88, -11026.03, -7935.85, -56639.00, -120696.09, -167573.66, -157378.61, 0.07, 0.00, 0.00
141, -7157.52, -7278.60, -11047.08, -7959.17, -56666.12, -120722.33, -167601.44, -157406.20, 0.07, 0.00, 0.00
142, -7169.01, -7288.75, -11051.37, -7966.32, -56676.85, -120732.09, -167611.64, -157415.86, 0.07, 0.00, 0.00
143, -7136.22, -7258.91, -11016.50, -7936.63, -56649.91, -120704.65, -167582.33, -157386.47, 0.07, 0.00, 0.00
144, -7116.17, -7240.62, -10992.39, -7917.50, -56633.66, -120687.84, -167564.55, -157369.11, 0.07, 0.00, 0.00
145, -7143.08, -7264.67, -11009.84, -7937.42, -56657.40, -120710.63, -167588.66, -157393.47, 0.07, 0.00, 0.00
146, -7162.35, -7281.77, -11021.02, -7951.01, -56674.68, -120727.04, -167605.98, -157410.17, 0.07, 0.00, 0.00
147, -7137.40, -7259.42, -10993.50, -7928.48, -56654.92, -120706.81, -167584.14, -157388.11, 0.07, 0.00, 0.00
148, -7114.72, -7239.15, -10967.69, -7907.80, -56637.02, -120688.58, -167564.41, -157368.92, 0.07, 0.00, 0.00
149, -7136.55, -7258.75, -10980.83, -7923.65, -56656.62, -120707.35, -167584.30, -157388.84, 0.07, 0.00, 0.00
150, -7162.21, -7281.55, -10997.55, -7942.60, -56679.26, -120728.98, -167607.20, -157411.17, 0.07, 0.00, 0.00
151, -7145.70, -7266.80, -10977.61, -7927.25, -56666.86, -120715.91, -167592.88, -157396.67, 0.07, 0.00, 0.00
152, -7115.77, -7239.93, -10945.29, -7900.38, -56642.63, -120691.23, -167566.47, -157370.67, 0.07, 0.00, 0.00
153, -7128.84, -7251.55, -10950.54, -7908.87, -56654.56, -120702.52, -167578.27, -157382.73, 0.07, 0.00, 0.00
154, -7160.11, -7279.58, -10972.25, -7932.68, -56682.19, -120729.23, -167606.45, -157410.52, 0.07, 0.00, 0.00
155, -7147.46, -7267.94, -10955.30, -7919.89, -56672.42, -120718.80, -167595.16, -157398.78, 0.07, 0.00, 0.00
156, -7115.70, -7239.53, -10921.67, -7891.71, -56646.94, -120692.87, -167567.22, -157371.23, 0.07, 0.00, 0.00
157, -7120.21, -7243.46, -10919.39, -7893.09, -56651.70, -120697.05, -167571.58, -157375.91, 0.07, 0.00, 0.00
158, -7150.99, -7270.91, -10940.42, -7916.07, -56678.48, -120722.91, -167599.09, -157403.02, 0.07, 0.00, 0.00
159, -7149.61, -7269.55, -10933.60, -7913.17, -56678.59, -120722.21, -167598.05, -157401.58, 0.07, 0.00, 0.00
160, -7116.37, -7239.80, -10898.80, -7883.86, -56651.88, -120695.17, -167568.86, -157372.66, 0.07, 0.00, 0.00
161, -7114.49, -7238.25, -10891.25, -7880.31, -56651.54, -120694.32, -167567.83, -157371.83, 0.07, 0.00, 0.00
162, -7148.00, -7268.18, -10914.54, -7905.83, -56680.89, -120722.66, -167597.86, -157401.61, 0.07, 0.00, 0.00
163, -7154.44, -7273.91, -10914.65, -7909.21, -56687.57, -120728.45, -167603.81, -157406.98, 0.07, 0.00, 0.00
164, -7120.17, -7242.99, -10878.73, -7878.65, -56659.55, -120700.02, -167573.34, -157376.66, 0.07, 0.00, 0.00
165, -7109.22, -7233.07, -10863.01, -7867.43, -56651.41, -120691.28, -167563.92, -157367.81, 0.07, 0.00, 0.00
166, -7139.79, -7260.34, -10883.78, -7890.66, -56678.25, -120717.27, -167591.45, -157395.19, 0.07, 0.00, 0.00
167, -7152.51, -7271.54, -10889.12, -7898.79, -56689.95, -120728.05, -167602.73, -157405.98, 0.07, 0.00, 0.00
168, -7123.28, -7245.34, -10857.78, -7872.66, -56666.43, -120704.04, -167576.72, -157380.02, 0.07, 0.00, 0.00
169, -7105.49, -7229.58, -10836.35, -7856.21, -56652.71, -120690.03, -167561.45, -157365.16, 0.07, 0.00, 0.00
170, -7132.73, -7254.01, -10854.36, -7876.80, -56677.03, -120713.52, -167586.36, -157390.00, 0.07, 0.00, 0.00
171, -7154.23, -7273.12, -10867.51, -7892.49, -56696.32, -120731.89, -167605.69, -157408.73, 0.06, 0.00, 0.00
172, -7131.70, -7252.94, -10842.36, -7872.13, -56678.75, -120713.70, -167585.91, -157388.84, 0.07, 0.00, 0.00
173, -7107.54, -7231.37, -10815.45, -7850.38, -56659.70, -120694.14, -167564.94, -157368.19, 0.07, 0.00, 0.00
174, -7129.07, -7250.93, -10828.50, -7866.50, -56679.13, -120712.94, -167584.66, -157388.08, 0.06, 0.00, 0.00
175, -7155.60, -7274.46, -10846.03, -7886.23, -56702.44, -120735.34, -167608.39, -157411.23, 0.06, 0.00, 0.00
176, -7138.61, -7259.13, -10825.53, -7870.29, -56689.30, -120721.48, -167593.44, -157396.11, 0.06, 0.00, 0.00
177, -7104.52, -7228.15, -10789.25, -7839.52, -56661.11, -120692.91, -167563.00, -157366.11, 0.07, 0.00, 0.00
178, -7115.19, -7237.54, -10792.36, -7846.04, -56670.99, -120702.10, -167572.72, -157376.08, 0.06, 0.00, 0.00
179, -7147.66, -7266.71, -10815.27, -7871.01, -56699.76, -120729.75, -167602.09, -157404.98, 0.06, 0.00, 0.00
180, -7140.04, -7259.91, -10803.11, -7862.92, -56694.53, -120723.91, -167595.50, -157397.89, 0.06, 0.00, 0.00
181, -7106.85, -7230.10, -10768.20, -7833.53, -56667.62, -120696.69, -167566.19, -157368.95, 0.06, 0.00, 0.00
182, -7109.11, -7231.91, -10764.00, -7833.03, -56670.36, -120698.90, -167568.42, -157371.66, 0.06, 0.00, 0.00
183, -7139.35, -7258.66, -10784.40, -7855.45, -56696.58, -120724.18, -167595.31, -157398.23, 0.06, 0.00, 0.00
184, -7135.95, -7255.20, -10775.44, -7850.18, -56694.39, -120721.08, -167592.03, -157394.44, 0.06, 0.00, 0.00
185, -7102.07, -7224.91, -10740.04, -7820.47, -56667.08, -120693.31, -167562.27, -157364.81, 0.06, 0.00, 0.00
186, -7097.35, -7220.71, -10729.93, -7814.59, -56664.22, -120689.94, -167558.64, -157361.45, 0.06, 0.00, 0.00
187, -7132.71, -7252.72, -10755.44, -7842.27, -56695.62, -120720.56, -167590.73, -157393.47, 0.06, 0.00, 0.00
188, -7140.42, -7259.53, -10756.55, -7846.62, -56703.18, -120727.27, -167597.53, -157399.89, 0.06, 0.00, 0.00
189, -7109.89, -7232.17, -10724.17, -7819.71, -56678.90, -120702.34, -167570.75, -157373.17, 0.06, 0.00, 0.00
190, -7097.55, -7221.09, -10707.47, -7807.64, -56669.58, -120692.73, -167560.31, -157363.06, 0.06, 0.00, 0.00
191, -7126.50, -7247.04, -10727.03, -7829.61, -56695.13, -120717.50, -167586.52, -157389.20, 0.06, 0.00, 0.00
192, -7142.81, -7261.54, -10735.70, -7841.26, -56710.09, -120731.40, -167601.17, -157403.34, 0.06, 0.00, 0.00
193, -7114.14, -7235.68, -10704.72, -7815.53, -56686.84, -120707.59, -167575.66, -157377.70, 0.06, 0.00, 0.00
194, -7092.57, -7216.31, -10679.89, -7795.68, -56669.80, -120690.14, -167556.78, -157359.38, 0.06, 0.00, 0.00
195, -7117.26, -7238.48, -10695.76, -7814.19, -56691.87, -120711.42, -167579.22, -157382.00, 0.06, 0.00, 0.00
196, -7142.99, -7261.50, -10712.81, -7833.84, -56714.91, -120733.59, -167602.47, -157404.53, 0.06, 0.00, 0.00
197, -7121.89, -7242.57, -10688.80, -7814.71, -56698.42, -120716.52, -167584.02, -157385.88, 0.06, 0.00, 0.00
198, -7093.37, -7216.91, -10657.85, -7789.07, -56675.35, -120693.02, -167558.97, -157361.22, 0.06, 0.00, 0.00
199, -7111.43, -7233.23, -10667.86, -7802.17, -56691.78, -120708.78, -167575.52, -157378.00, 0.06, 0.00, 0.00
200, -7141.45, -7260.20, -10688.74, -7825.26, -56718.46, -120734.55, -167602.58, -157404.63, 0.06, 0.00, 0.00
201, -7128.02, -7248.20, -10671.57, -7812.60, -56708.54, -120723.94, -167590.92, -157392.66, 0.06, 0.00, 0.00
202, -7094.64, -7218.03, -10636.26, -7782.90, -56681.16, -120696.24, -167561.33, -157363.45, 0.06, 0.00, 0.00
203, -7102.09, -7224.44, -10636.57, -7786.72, -56688.20, -120702.61, -167568.09, -157370.52, 0.06, 0.00, 0.00
204, -7131.61, -7250.50, -10656.26, -7808.56, -56713.73, -120727.27, -167594.31, -157396.27, 0.06, 0.00, 0.00
205, -7125.89, -7245.45, -10645.82, -7802.14, -56710.17, -120722.95, -167589.39, -157391.02, 0.06, 0.00, 0.00
206, -7091.31, -7214.32, -10609.68, -7771.68, -56682.08, -120694.37, -167558.91, -157360.67, 0.06, 0.00, 0.00
207, -7094.24, -7217.24, -10606.55, -7772.55, -56686.08, -120697.76, -167562.28, -157364.34, 0.06, 0.00, 0.00
208, -7129.27, -7248.74, -10631.76, -7799.95, -56717.08, -120727.87, -167594.06, -157395.80, 0.06, 0.00, 0.00
209, -7131.35, -7250.32, -10627.96, -7799.73, -56719.88, -120729.79, -167595.92, -157397.20, 0.06, 0.00, 0.00
210, -7097.21, -7219.70, -10592.31, -7769.71, -56692.27, -120701.70, -167565.75, -157367.25, 0.06, 0.00, 0.00
211, -7089.30, -7212.59, -10579.55, -7761.22, -56686.75, -120695.64, -167559.25, -157361.03, 0.06, 0.00, 0.00
212, -7124.26, -7244.20, -10604.76, -7788.71, -56717.82, -120725.77, -167590.98, -157392.73, 0.06, 0.00, 0.00
213, -7132.80, -7251.62, -10606.44, -7793.56, -56725.84, -120733.08, -167598.56, -157399.81, 0.06, 0.00, 0.00
214, -7099.32, -7221.20, -10571.17, -7763.74, -56698.37, -120705.14, -167568.72, -157369.95, 0.06, 0.00, 0.00
215, -7083.29, -7206.78, -10551.19, -7748.63, -56686.01, -120692.20, -167554.75, -157356.55, 0.06, 0.00, 0.00
216, -7111.86, -7232.44, -10570.36, -7770.43, -56711.20, -120716.58, -167580.61, -157382.27, 0.06, 0.00, 0.00
217, -7132.58, -7251.11, -10583.26, -7786.05, -56730.11, -120734.66, -167599.50, -157400.53, 0.06, 0.00, 0.00
218, -7107.61, -7228.87, -10555.99, -7763.92, -56710.44, -120714.44, -167577.70, -157378.66, 0.06, 0.00, 0.00
219, -7082.53, -7206.11, -10527.92, -7741.03, -56690.04, -120693.70, -167555.58, -157357.03, 0.06, 0.00, 0.00
220, -7104.32, -7225.51, -10541.10, -7757.08, -56709.55, -120712.38, -167575.30, -157376.92, 0.06, 0.00, 0.00
221, -7129.45, -7247.91, -10557.51, -7775.93, -56731.88, -120733.70, -167597.89, -157398.94, 0.06, 0.00, 0.00
222, -7107.99, -7228.53, -10533.06, -7756.35, -56714.78, -120716.05, -167578.88, -157379.67, 0.06, 0.00, 0.00
223, -7078.28, -7201.82, -10501.21, -7729.93, -56690.73, -120691.62, -167552.72, -157353.84, 0.06, 0.00, 0.00
224, -7094.26, -7216.31, -10509.54, -7741.39, -56705.48, -120705.72, -167567.56, -157368.86, 0.06, 0.00, 0.00
225, -7125.98, -7244.76, -10531.87, -7766.05, -56733.62, -120732.92, -167596.19, -157397.00, 0.06, 0.00, 0.00
226, -7111.97, -7231.82, -10513.86, -7752.48, -56722.67, -120721.14, -167583.66, -157384.08, 0.06, 0.00, 0.00
227, -7080.63, -7203.85, -10480.87, -7725.03, -56697.59, -120695.64, -167556.19, -157357.11, 0.06, 0.00, 0.00
228, -7086.78, -7209.26, -10480.15, -7728.03, -56703.73, -120701.18, -167561.91, -157363.20, 0.06, 0.00, 0.00
229, -7116.73, -7235.68, -10500.42, -7750.51, -56729.60, -120726.33, -167588.48, -157389.48, 0.06, 0.00, 0.00
230, -7116.04, -7235.28, -10494.84, -7748.84, -56730.67, -120726.59, -167588.44, -157388.94, 0.06, 0.00, 0.00
231, -7082.84, -7205.58, -10460.08, -7719.80, -56703.89, -120699.51, -167559.31, -157359.98, 0.06, 0.00, 0.00
232, -7078.64, -7201.53, -10450.07, -7714.06, -56701.03, -120696.04, -167555.75, -157356.80, 0.06, 0.00, 0.00
233, -7110.34, -7229.83, -10472.15, -7738.31, -56728.88, -120722.91, -167584.36, -157385.09, 0.06, 0.00, 0.00
234, -7115.66, -7234.66, -10471.37, -7741.12, -56734.69, -120727.94, -167589.27, -157389.52, 0.06, 0.00, 0.00
235, -7082.75, -7205.06, -10436.88, -7712.29, -56708.09, -120700.89, -167560.31, -157360.59, 0.06, 0.00, 0.00
236, -7074.10, -7197.28, -10423.56, -7703.46, -56701.99, -120694.25, -167553.20, -157353.84, 0.06, 0.00, 0.00
237, -7107.68, -7227.73, -10447.65, -7729.95, -56731.92, -120723.40, -167583.78, -157384.38, 0.06, 0.00, 0.00
238, -7117.98, -7236.53, -10450.85, -7736.27, -56741.38, -120731.91, -167592.72, -157392.75, 0.06, 0.00, 0.00
239, -7088.61, -7210.14, -10419.58, -7710.52, -56717.82, -120707.91, -167566.89, -157366.98, 0.06, 0.00, 0.00
240, -7073.92, -7197.35, -10401.41, -7697.29, -56707.18, -120696.87, -167554.73, -157355.31, 0.06, 0.00, 0.00
241, -7099.54, -7220.10, -10418.01, -7716.47, -56729.71, -120718.57, -167577.81, -157378.42, 0.06, 0.00, 0.00
242, -7117.94, -7236.27, -10428.34, -7729.50, -56746.05, -120733.88, -167594.14, -157394.09, 0.06, 0.00, 0.00
243, -7092.25, -7213.09, -10400.22, -7706.52, -56725.42, -120712.70, -167571.33, -157371.20, 0.06, 0.00, 0.00
244, -7064.65, -7188.01, -10369.78, -7681.49, -56702.71, -120689.63, -167546.75, -157347.11, 0.06, 0.00, 0.00
245, -7085.37, -7206.52, -10382.16, -7696.82, -56721.33, -120707.51, -167565.70, -157366.11, 0.06, 0.00, 0.00
246, -7114.81, -7233.05, -10402.88, -7719.82, -56747.84, -120733.10, -167592.55, -157392.39, 0.06, 0.00, 0.00
247, -7093.59, -7213.69, -10378.38, -7700.20, -56730.65, -120715.38, -167573.53, -157373.16, 0.06, 0.00, 0.00
248, -7061.61, -7184.86, -10344.39, -7671.77, -56704.43, -120688.84, -167545.30, -157345.23, 0.06, 0.00, 0.00
249, -7077.52, -7199.41, -10352.93, -7683.68, -56719.45, -120703.15, -167560.25, -157360.45, 0.06, 0.00, 0.00
250, -7110.22, -7228.87, -10376.33, -7709.32, -56748.53, -120731.29, -167589.89, -157389.64, 0.06, 0.00, 0.00
251, -7101.28, -7220.80, -10363.25, -7700.49, -56742.38, -120724.36, -167582.17, -157381.63, 0.06, 0.00, 0.00
252, -7067.91, -7190.87, -10328.38, -7671.39, -56715.31, -120697.05, -167552.78, -157352.61, 0.06, 0.00, 0.00
253, -7072.45, -7194.83, -10326.46, -7673.26, -56720.16, -120701.36, -167557.30, -157357.33, 0.06, 0.00, 0.00
254, -7108.32, -7227.12, -10352.57, -7701.52, -56752.02, -120732.20, -167589.81, -157389.52, 0.06, 0.00, 0.00
255, -7107.39, -7226.27, -10346.35, -7699.26, -56752.55, -120731.89, -167589.22, -157388.44, 0.06, 0.00, 0.00
0, -7074.71, -7197.17, -10312.42, -7671.05, -56726.47, -120705.34, -167560.78, -157360.14, 0.06, 0.00, 0.00
1, -7068.94, -7191.70, -10301.27, -7664.28, -56722.27, -120700.71, -167555.84, -157355.56, 0.06, 0.00, 0.00
2, -7095.74, -7215.10, -10318.50, -7683.70, -56745.07, -120722.62, -167579.34, -157378.94, 0.06, 0.00, 0.00
3, -7102.02, -7220.53, -10318.46, -7687.12, -56751.55, -120728.16, -167585.06, -157384.13, 0.06, 0.00, 0.00
4, -7069.66, -7191.49, -10284.51, -7658.78, -56725.46, -120701.67, -167556.53, -157355.72, 0.06, 0.00, 0.00
5, -7059.62, -7182.71, -10270.22, -7649.28, -56718.46, -120694.30, -167548.38, -157347.94, 0.06, 0.00, 0.00
6, -7091.34, -7211.25, -10292.67, -7674.11, -56746.68, -120721.68, -167577.23, -157376.77, 0.06, 0.00, 0.00
7, -7105.82, -7224.08, -10299.84, -7684.24, -56759.86, -120734.11, -167590.16, -157389.09, 0.06, 0.00, 0.00
8, -7075.91, -7197.13, -10268.01, -7657.89, -56735.63, -120709.32, -167563.67, -157362.63, 0.06, 0.00, 0.00
9, -7057.99, -7181.24, -10246.96, -7641.88, -56722.07, -120695.26, -167548.47, -157347.92, 0.06, 0.00, 0.00
10, -7082.64, -7203.32, -10262.85, -7660.59, -56744.02, -120716.38, -167570.89, -157370.36, 0.06, 0.00, 0.00
11, -7104.21, -7222.50, -10276.19, -7676.64, -56763.26, -120734.75, -167590.27, -157389.17, 0.06, 0.00, 0.00
12, -7082.08, -7202.56, -10251.56, -7656.93, -56745.94, -120716.85, -167570.98, -157369.58, 0.06, 0.00, 0.00
13, -7054.81, -7177.90, -10221.74, -7632.58, -56723.90, -120694.41, -167546.86, -157346.06, 0.06, 0.00, 0.00
14, -7071.40, -7192.59, -10230.37, -7644.39, -56738.79, -120708.67, -167562.02, -157361.33, 0.06, 0.00, 0.00
15, -7099.43, -7217.76, -10249.57, -7665.98, -56763.62, -120732.63, -167587.31, -157386.11, 0.06, 0.00, 0.00
16, -7083.13, -7202.98, -10229.75, -7650.73, -56750.94, -120719.20, -167572.83, -157371.27, 0.06, 0.00, 0.00
17, -7053.45, -7176.47, -10198.34, -7625.01, -56727.36, -120695.21, -167547.02, -157345.86, 0.06, 0.00, 0.00
18, -7068.94, -7190.80, -10206.79, -7637.03, -56742.41, -120709.66, -167561.92, -157361.06, 0.06, 0.00, 0.00
19, -7101.06, -7219.35, -10229.37, -7661.84, -56770.46, -120736.77, -167590.61, -157389.31, 0.06, 0.00, 0.00
20, -7090.91, -7209.82, -10214.79, -7651.47, -56762.68, -120728.18, -167581.39, -157379.72, 0.06, 0.00, 0.00
21, -7056.85, -7179.42, -10179.48, -7621.81, -56735.18, -120700.34, -167551.53, -157350.11, 0.06, 0.00, 0.00
22, -7058.64, -7180.92, -10175.23, -7621.59, -56737.69, -120702.34, -167553.66, -157352.55, 0.06, 0.00, 0.00
23, -7088.21, -7206.96, -10195.14, -7643.72, -56763.19, -120727.00, -167579.98, -157378.56, 0.06, 0.00, 0.00
24, -7087.76, -7206.36, -10189.20, -7641.61, -56763.80, -120726.73, -167579.50, -157377.59, 0.06, 0.00, 0.00
25, -7057.29, -7179.34, -10157.46, -7615.62, -56739.81, -120702.32, -167553.13, -157351.33, 0.06, 0.00, 0.00
26, -7053.36, -7175.96, -10148.59, -7611.15, -56738.00, -120700.04, -167550.45, -157349.09, 0.06, 0.00, 0.00
27, -7084.74, -7204.06, -10170.47, -7635.40, -56765.43, -120726.69, -167578.75, -157377.17, 0.06, 0.00, 0.00
28, -7092.74, -7211.03, -10172.17, -7640.25, -56773.16, -120733.55, -167585.94, -157383.81, 0.06, 0.00, 0.00
29, -7060.78, -7182.33, -10138.73, -7612.31, -56747.41, -120707.28, -167557.81, -157355.73, 0.06, 0.00, 0.00
30, -7044.64, -7167.62, -10118.66, -7597.18, -56734.78, -120694.19, -167543.69, -157342.13, 0.06, 0.00, 0.00
31, -7072.76, -7192.66, -10137.66, -7618.70, -56759.59, -120718.23, -167569.03, -157367.42, 0.06, 0.00, 0.00
32, -7093.75, -7211.66, -10151.09, -7635.13, -56779.04, -120736.63, -167588.41, -157386.16, 0.06, 0.00, 0.00
33, -7067.35, -7188.07, -10122.77, -7612.02, -56758.14, -120715.15, -167565.34, -157362.95, 0.06, 0.00, 0.00
34, -7045.23, -7168.23, -10097.80, -7592.37, -56740.62, -120697.23, -167546.13, -157344.14, 0.06, 0.00, 0.00
35, -7066.03, -7186.53, -10110.12, -7607.55, -56758.83, -120714.77, -167564.72, -157362.88, 0.06, 0.00, 0.00
36, -7088.72, -7206.63, -10124.54, -7624.52, -56778.86, -120733.99, -167585.06, -157382.72, 0.06, 0.00, 0.00
37, -7064.67, -7184.77, -10097.71, -7602.70, -56759.37, -120713.88, -167563.58, -157361.03, 0.06, 0.00, 0.00
38, -7038.01, -7161.01, -10068.92, -7579.52, -56738.27, -120692.42, -167540.48, -157338.30, 0.06, 0.00, 0.00
39, -7054.59, -7175.71, -10077.84, -7591.66, -56753.49, -120706.93, -167555.69, -157353.73, 0.06, 0.00, 0.00
40, -7084.32, -7202.27, -10098.54, -7614.61, -56779.71, -120732.18, -167582.44, -157380.06, 0.06, 0.00, 0.00
41, -7073.50, -7192.81, -10084.08, -7604.73, -56772.16, -120723.94, -167573.38, -157370.56, 0.06, 0.00, 0.00
42, -7042.01, -7164.65, -10051.18, -7577.51, -56746.88, -120698.25, -167545.78, -157343.28, 0.06, 0.00, 0.00
43, -7049.49, -7171.18, -10051.94, -7581.96, -56754.14, -120704.98, -167552.81, -157350.63, 0.06, 0.00, 0.00
44, -7083.69, -7201.93, -10076.72, -7608.85, -56784.43, -120734.27, -167583.73, -157381.20, 0.06, 0.00, 0.00
45, -7079.49, -7198.11, -10067.90, -7604.22, -56782.23, -120731.29, -167580.33, -157377.33, 0.06, 0.00, 0.00
46, -7043.28, -7165.39, -10030.37, -7572.57, -56752.57, -120701.31, -167548.22, -157345.50, 0.06, 0.00, 0.00
47, -7044.82, -7166.95, -10026.34, -7572.61, -56755.26, -120703.55, -167550.25, -157347.89, 0.06, 0.00, 0.00
48, -7079.13, -7197.78, -10051.13, -7599.68, -56785.70, -120732.97, -167581.39, -157378.77, 0.06, 0.00, 0.00
49, -7082.04, -7200.23, -10048.52, -7600.64, -56789.25, -120735.65, -167584.20, -157381.06, 0.06, 0.00, 0.00
50, -7047.86, -7169.52, -10013.25, -7570.96, -56761.61, -120707.59, -167554.02, -157351.02, 0.06, 0.00, 0.00
51, -7038.27, -7160.76, -9998.96, -7561.37, -56754.36, -120699.95, -167545.81, -157343.25, 0.06, 0.00, 0.00
52, -7067.76, -7186.89, -10019.01, -7583.81, -56780.07, -120724.77, -167572.28, -157369.47, 0.06, 0.00, 0.00
53, -7077.05, -7195.00, -10021.72, -7589.65, -56788.76, -120732.67, -167580.50, -157377.27, 0.06, 0.00, 0.00
54, -7046.88, -7167.94, -9989.96, -7563.36, -56764.55, -120707.95, -167553.91, -157350.63, 0.06, 0.00, 0.00
55, -7031.88, -7154.68, -9971.49, -7549.99, -56753.45, -120696.33, -167541.25, -157338.48, 0.06, 0.00, 0.00
56, -7061.25, -7181.21, -9992.12, -7573.26, -56779.78, -120721.86, -167568.14, -157365.39, 0.06, 0.00, 0.00
57, -7082.66, -7200.57, -10005.87, -7589.83, -56799.38, -120740.48, -167587.70, -157384.30, 0.06, 0.00, 0.00
58, -7057.94, -7178.37, -9979.18, -7568.28, -56779.87, -120720.45, -167566.16, -157362.52, 0.06, 0.00, 0.00
59, -7032.89, -7155.73, -9951.49, -7545.88, -56759.68, -120699.82, -167544.02, -157340.97, 0.06, 0.00, 0.00
60, -7054.79, -7175.45, -9965.23, -7562.51, -56779.31, -120718.82, -167564.08, -157361.22, 0.06, 0.00, 0.00
61, -7080.67, -7198.56, -9982.69, -7582.47, -56802.26, -120740.97, -167587.52, -157383.95, 0.06, 0.00, 0.00
62, -7060.18, -7179.98, -9959.36, -7564.10, -56785.99, -120724.09, -167569.33, -157365.48, 0.06, 0.00, 0.00
63, -7029.24, -7152.07, -9926.66, -7536.99, -56760.93, -120698.50, -167541.97, -157338.59, 0.06, 0.00, 0.00
64, -7043.28, -7164.58, -9933.36, -7547.11, -56773.92, -120710.77, -167554.95, -157351.78, 0.06, 0.00, 0.00
65, -7076.27, -7194.27, -9957.23, -7573.33, -56803.20, -120739.25, -167584.92, -157381.25, 0.07, 0.00, 0.00
66, -7063.58, -7182.71, -9940.92, -7561.35, -56793.52, -120728.80, -167573.73, -157369.64, 0.07, 0.00, 0.00
67, -7028.84, -7151.46, -9904.95, -7531.02, -56765.25, -120700.11, -167542.95, -157339.36, 0.07, 0.00, 0.00
68, -7032.46, -7154.37, -9902.11, -7532.09, -56768.98, -120703.20, -167546.25, -157342.97, 0.07, 0.01, 0.11
69, -7065.74, -7184.12, -9925.98, -7558.24, -56798.11, -120731.52, -167576.25, -157372.64, 0.07, 0.00, 0.00
70, -7062.91, -7181.55, -9918.41, -7554.60, -56797.01, -120729.75, -167573.97, -157369.89, 0.07, 0.00, 0.00
71, -7029.44, -7151.75, -9884.05, -7525.88, -56770.25, -120702.59, -167544.78, -157340.89, 0.07, 0.00, 0.00
72, -7027.54, -7150.01, -9876.81, -7523.02, -56769.85, -120701.63, -167543.66, -157340.11, 0.07, 0.00, 0.00
73, -7061.63, -7180.59, -9901.42, -7549.99, -56799.89, -120730.73, -167574.47, -157370.78, 0.07, 0.00, 0.00
74, -7067.22, -7185.55, -9901.15, -7553.24, -56805.77, -120735.73, -167579.61, -157375.34, 0.07, 0.00, 0.00
75, -7035.44, -7157.03, -9868.21, -7525.85, -56780.36, -120709.83, -167551.75, -157347.61, 0.07, 0.00, 0.00
76, -7024.93, -7147.53, -9853.59, -7515.82, -56772.63, -120701.72, -167542.88, -157339.22, 0.07, 0.00, 0.00
77, -7054.50, -7173.90, -9874.08, -7538.66, -56798.60, -120726.93, -167569.61, -157365.59, 0.07, 0.00, 0.00
78, -7068.38, -7186.29, -9881.21, -7548.72, -56811.56, -120738.95, -167582.20, -157377.64, 0.07, 0.00, 0.00
79, -7038.39, -7159.31, -9849.61, -7522.66, -56787.45, -120714.16, -167555.69, -157351.14, 0.07, 0.00, 0.00
80, -7020.79, -7143.59, -9828.84, -7506.90, -56773.81, -120700.11, -167540.56, -157336.53, 0.07, 0.00, 0.00
81, -7047.71, -7167.65, -9847.17, -7527.84, -56797.77, -120723.31, -167565.08, -157361.06, 0.07, 0.00, 0.00
82, -7068.54, -7186.24, -9860.29, -7543.69, -56816.50, -120741.10, -167583.77, -157379.30, 0.07, 0.00, 0.00
83, -7043.30, -7163.56, -9833.05, -7521.50, -56796.43, -120720.45, -167561.50, -157356.81, 0.07, 0.00, 0.00
84, -7018.51, -7141.31, -9805.91, -7499.73, -56776.76, -120700.38, -167539.91, -157335.63, 0.07, 0.00, 0.00
85, -7036.53, -7157.21, -9816.04, -7512.96, -56792.79, -120715.82, -167556.30, -157352.09, 0.07, 0.00, 0.00
86, -7061.03, -7178.73, -9832.00, -7531.29, -56814.13, -120736.23, -167577.97, -157373.38, 0.07, 0.00, 0.00
87, -7043.53, -7162.84, -9811.50, -7515.44, -56800.45, -120721.92, -167562.58, -157357.69, 0.07, 0.00, 0.00
88, -7016.44, -7138.95, -9782.84, -7492.57, -56779.35, -120700.40, -167539.33, -157334.73, 0.07, 0.00, 0.00
89, -7028.48, -7149.72, -9787.96, -7501.13, -56790.66, -120711.06, -167550.44, -157346.16, 0.07, 0.00, 0.00
90, -7056.02, -7173.93, -9806.42, -7521.85, -56814.58, -120733.95, -167574.91, -157370.22, 0.07, 0.00, 0.00
91, -7049.49, -7168.36, -9796.03, -7515.73, -56810.80, -120729.45, -167569.56, -157364.52, 0.07, 0.00, 0.00
92, -7019.50, -7141.76, -9764.92, -7490.34, -56787.22, -120705.49, -167543.63, -157338.94, 0.07, 0.00, 0.00
93, -7022.43, -7144.18, -9761.86, -7491.12, -56790.57, -120708.22, -167546.59, -157342.17, 0.07, 0.00, 0.00
94, -7053.18, -7171.36, -9783.22, -7514.86, -56817.26, -120734.04, -167574.06, -157369.33, 0.07, 0.00, 0.00
95, -7052.65, -7170.80, -9777.77, -7513.25, -56818.00, -120733.97, -167573.64, -157368.59, 0.07, 0.00, 0.00
96, -7017.42, -7139.01, -9741.61, -7482.85, -56789.23, -120704.91, -167542.50, -157337.66, 0.07, 0.00, 0.00
97, -7013.57, -7135.68, -9733.00, -7478.54, -56787.33, -120702.52, -167539.84, -157335.31, 0.07, 0.00, 0.00
98, -7047.37, -7166.06, -9757.56, -7505.36, -56817.26, -120731.52, -167570.47, -157365.59, 0.07, 0.00, 0.00
99, -7054.66, -7172.36, -9758.79, -7510.03, -56824.48, -120737.93, -167577.11, -157371.63, 0.07, 0.00, 0.00
100, -7023.16, -7144.18, -9726.18, -7483.01, -56799.25, -120712.20, -167549.39, -157344.03, 0.07, 0.00, 0.00
101, -7007.45, -7129.67, -9706.63, -7468.16, -56786.57, -120699.13, -167535.34, -157330.69, 0.07, 0.00, 0.00
102, -7037.60, -7156.76, -9727.95, -7492.04, -56813.37, -120725.05, -167562.75, -157357.97, 0.07, 0.00, 0.00
103, -7055.77, -7173.32, -9739.19, -7506.27, -56830.29, -120741.10, -167579.56, -157374.09, 0.07, 0.00, 0.00
104, -7027.99, -7148.42, -9709.84, -7482.16, -56808.12, -120718.30, -167555.06, -157349.53, 0.07, 0.00, 0.00
105, -7004.95, -7127.48, -9683.92, -7461.53, -56789.54, -120699.33, -167534.75, -157329.72, 0.07, 0.00, 0.00
106, -7029.33, -7149.27, -9700.01, -7480.35, -56811.25, -120720.36, -167556.98, -157352.00, 0.07, 0.00, 0.00
107, -7051.44, -7168.90, -9714.27, -7497.09, -56830.85, -120739.02, -167576.70, -157371.23, 0.07, 0.00, 0.00
108, -7029.67, -7149.21, -9690.17, -7477.89, -56813.66, -120721.19, -167557.50, -157351.72, 0.07, 0.00, 0.00
109, -7004.21, -7126.43, -9662.75, -7456.01, -56793.64, -120700.78, -167535.45, -157330.06, 0.07, 0.00, 0.00
110, -7022.34, -7142.77, -9673.37, -7469.86, -56810.33, -120716.67, -167552.22, -157347.00, 0.07, 0.00, 0.00
111, -7048.82, -7166.24, -9691.22, -7490.11, -56833.44, -120738.98, -167575.97, -157370.16, 0.07, 0.00, 0.00
112, -7035.79, -7154.73, -9675.18, -7478.60, -56823.99, -120728.79, -167564.81, -157358.69, 0.07, 0.00, 0.00
113, -7004.28, -7126.61, -9642.52, -7451.51, -56798.80, -120703.20, -167537.14, -157331.52, 0.07, 0.00, 0.00
114, -7012.44, -7133.65, -9644.02, -7456.63, -56806.49, -120710.30, -167544.67, -157339.33, 0.07, 0.00, 0.00
115, -7046.43, -7163.98, -9668.78, -7483.65, -56836.48, -120739.31, -167575.36, -157369.50, 0.07, 0.00, 0.00
116, -7040.15, -7158.39, -9658.43, -7477.37, -56832.37, -120734.64, -167570.00, -157363.83, 0.07, 0.00, 0.00
117, -7004.88, -7126.65, -9622.34, -7446.93, -56803.69, -120705.49, -167538.91, -157333.08, 0.07, 0.00, 0.00
118, -7004.43, -7126.09, -9616.41, -7445.01, -56804.18, -120705.43, -167538.75, -157333.31, 0.07, 0.00, 0.00
119, -7037.71, -7155.84, -9640.46, -7471.27, -56833.36, -120733.68, -167568.77, -157362.95, 0.07, 0.00, 0.00
120, -7040.69, -7158.50, -9638.23, -7472.75, -56837.33, -120736.77, -167571.78, -157365.39, 0.07, 0.00, 0.00
121, -7005.39, -7126.83, -9602.29, -7442.35, -56808.72, -120707.71, -167540.64, -157334.44, 0.07, 0.00, 0.00
122, -6999.87, -7121.96, -9592.23, -7436.89, -56805.44, -120703.93, -167536.41, -157330.64, 0.07, 0.00, 0.00
123, -7033.22, -7151.93, -9616.50, -7463.45, -56834.96, -120732.54, -167566.59, -157360.72, 0.07, 0.00, 0.00
124, -7041.76, -7159.31, -9618.83, -7468.99, -56843.19, -120739.80, -167574.20, -157367.72, 0.07, 0.00, 0.00
125, -7011.09, -7131.79, -9587.02, -7442.66, -56818.67, -120714.86, -167547.28, -157340.89, 0.07, 0.00, 0.00
126, -6997.35, -7119.68, -9569.97, -7430.44, -56808.45, -120704.22, -167535.75, -157329.77, 0.07, 0.00, 0.00
127, -7025.31, -7144.67, -9589.32, -7452.38, -56833.24, -120728.20, -167561.20, -157355.11, 0.07, 0.00, 0.00
128, -7044.53, -7161.86, -9601.33, -7467.18, -56850.68, -120744.84, -167578.63, -157372.02, 0.07, 0.00, 0.00
129, -7018.72, -7138.74, -9573.90, -7444.94, -56830.25, -120723.80, -167555.91, -157349.17, 0.07, 0.00, 0.00
130, -6996.70, -7119.12, -9549.45, -7425.70, -56813.08, -120706.10, -167536.89, -157330.64, 0.07, 0.00, 0.00
131, -7018.78, -7138.77, -9563.46, -7442.50, -56832.80, -120724.98, -167556.84, -157350.70, 0.07, 0.00, 0.00
132, -7043.19, -7160.43, -9579.98, -7461.33, -56854.36, -120745.77, -167578.75, -157372.13, 0.07, 0.00, 0.00
133, -7019.77, -7138.95, -9554.19, -7440.34, -56835.28, -120726.13, -167557.81, -157350.89, 0.07, 0.00, 0.00
134, -6988.63, -7110.78, -9521.46, -7413.16, -56809.95, -120700.34, -167530.30, -157323.75, 0.07, 0.00, 0.00
135, -7004.08, -7124.55, -9529.91, -7424.76, -56824.21, -120713.97, -167544.64, -157338.33, 0.07, 0.00, 0.00
136, -7036.33, -7153.68, -9553.58, -7450.60, -56852.96, -120741.73, -167573.97, -157367.16, 0.07, 0.00, 0.00
137, -7023.45, -7142.19, -9537.47, -7438.84, -56843.37, -120731.29, -167562.69, -157355.47, 0.07, 0.00, 0.00
138, -6990.22, -7112.24, -9503.11, -7410.14, -56816.37, -120703.93, -167533.41, -157326.50, 0.07, 0.00, 0.00
139, -6998.89, -7120.01, -9505.59, -7416.35, -56824.97, -120712.07, -167541.67, -157335.25, 0.07, 0.00, 0.00
140, -7032.06, -7149.67, -9529.71, -7442.62, -56854.14, -120740.32, -167571.47, -157364.72, 0.07, 0.00, 0.00
141, -7028.48, -7146.43, -9521.93, -7438.71, -56852.53, -120737.80, -167568.72, -157361.39, 0.07, 0.00, 0.00
142, -6995.00, -7116.46, -9487.67, -7410.07, -56825.64, -120710.48, -167539.27, -157332.27, 0.07, 0.00, 0.00
143, -6994.58, -7116.17, -9482.21, -7408.73, -56826.58, -120710.97, -167539.53, -157332.89, 0.07, 0.00, 0.00
144, -7026.32, -7144.51, -9504.90, -7433.63, -56854.41, -120737.86, -167568.14, -157361.22, 0.07, 0.00, 0.00
145, -7029.42, -7146.99, -9502.55, -7434.79, -56857.92, -120740.59, -167570.78, -157363.41, 0.06, 0.00, 0.00
146, -6996.83, -7117.73, -9469.12, -7406.90, -56831.68, -120713.84, -167542.09, -157334.81, 0.07, 0.00, 0.00
147, -6987.76, -7109.60, -9456.04, -7398.32, -56825.20, -120706.88, -167534.61, -157327.69, 0.07, 0.00, 0.00
148, -7019.63, -7138.12, -9479.02, -7423.62, -56853.38, -120734.28, -167563.47, -157356.41, 0.06, 0.00, 0.00
149, -7031.05, -7148.11, -9484.05, -7431.71, -56863.93, -120744.08, -167573.66, -157366.16, 0.06, 0.00, 0.00
150, -6999.87, -7120.06, -9451.77, -7404.75, -56838.72, -120718.28, -167546.02, -157338.53, 0.07, 0.00, 0.00
151, -6983.00, -7105.02, -9432.03, -7389.87, -56825.87, -120704.98, -167531.61, -157324.58, 0.07, 0.00, 0.00
152, -7009.08, -7128.35, -9449.80, -7410.30, -56849.11, -120727.38, -167555.39, -157348.27, 0.06, 0.00, 0.00
153, -7031.79, -7148.94, -9465.23, -7428.40, -56869.92, -120747.18, -167576.03, -157368.41, 0.06, 0.00, 0.00
154, -7006.35, -7125.91, -9438.16, -7406.21, -56849.47, -120726.28, -167553.52, -157345.84, 0.06, 0.00, 0.00
155, -6982.01, -7104.08, -9411.74, -7385.11, -56830.16, -120706.52, -167532.28, -157325.05, 0.06, 0.00, 0.00
156, -7002.94, -7122.79, -9424.97, -7401.20, -56849.00, -120724.65, -167551.42, -157344.23, 0.06, 0.00, 0.00
157, -7028.98, -7145.96, -9442.92, -7421.49, -56872.02, -120746.76, -167574.78, -157366.98, 0.06, 0.00, 0.00
158, -7008.14, -7126.97, -9419.67, -7402.83, -56855.28, -120729.45, -167556.25, -157348.25, 0.06, 0.00, 0.00
159, -6980.14, -7101.89, -9390.21, -7378.96, -56833.09, -120706.86, -167531.84, -157324.25, 0.06, 0.00, 0.00
160, -6992.50, -7112.88, -9395.85, -7387.92, -56844.48, -120717.56, -167543.27, -157335.98, 0.06, 0.00, 0.00
161, -7025.73, -7142.63, -9420.23, -7414.54, -56873.88, -120746.09, -167573.39, -157365.47, 0.06, 0.00, 0.00
162, -7014.89, -7132.71, -9405.93, -7404.44, -56865.88, -120737.34, -167563.84, -157355.53, 0.06, 0.00, 0.00
163, -6977.79, -7099.11, -9368.04, -7372.12, -56835.28, -120706.28, -167530.75, -157322.77, 0.06, 0.00, 0.00
164, -6980.81, -7101.57, -9365.43, -7373.10, -56838.72, -120709.05, -167533.81, -157326.14, 0.06, 0.00, 0.00
165, -7016.37, -7133.72, -9392.07, -7401.87, -56870.32, -120739.73, -167566.23, -157358.20, 0.06, 0.00, 0.00
166, -7015.88, -7133.38, -9387.17, -7400.73, -56871.38, -120739.98, -167566.03, -157357.64, 0.06, 0.00, 0.00
167, -6981.66, -7102.58, -9352.39, -7371.58, -56843.77, -120712.00, -167535.84, -157327.75, 0.06, 0.00, 0.00
168, -6979.56, -7100.84, -9345.67, -7368.97, -56843.34, -120711.06, -167534.64, -157327.05, 0.06, 0.00, 0.00
169, -7013.62, -7131.35, -9370.72, -7396.26, -56873.43, -120740.19, -167565.56, -157357.59, 0.06, 0.00, 0.00
170, -7019.97, -7137.00, -9371.66, -7400.66, -56880.07, -120745.95, -167571.48, -157362.95, 0.06, 0.00, 0.00
171, -6984.67, -7105.02, -9335.52, -7370.02, -56851.08, -120716.49, -167540.02, -157331.55, 0.06, 0.00, 0.00
172, -6973.21, -7094.69, -9320.41, -7359.54, -56842.54, -120707.53, -167530.28, -157322.28, 0.06, 0.00, 0.00
173, -7004.90, -7123.23, -9343.45, -7384.97, -56870.75, -120734.87, -167559.11, -157351.06, 0.06, 0.00, 0.00
174, -7021.06, -7137.74, -9353.13, -7397.53, -56885.84, -120749.02, -167573.89, -157365.28, 0.06, 0.00, 0.00
175, -6992.41, -7112.12, -9323.54, -7373.15, -56862.99, -120725.70, -167548.83, -157340.19, 0.06, 0.00, 0.00
176, -6968.47, -7090.17, -9297.05, -7351.69, -56843.37, -120705.63, -167527.58, -157319.38, 0.06, 0.00, 0.00
177, -6992.61, -7111.68, -9313.12, -7370.40, -56864.71, -120726.26, -167549.41, -157341.20, 0.06, 0.00, 0.00
178, -7015.85, -7132.58, -9328.97, -7388.79, -56885.63, -120746.22, -167570.39, -157361.73, 0.06, 0.00, 0.00
179, -6991.87, -7110.94, -9303.31, -7368.01, -56866.68, -120726.62, -167549.30, -157340.42, 0.06, 0.00, 0.00
180, -6964.54, -7086.33, -9274.27, -7344.27, -56844.64, -120704.22, -167525.31, -157316.94, 0.06, 0.00, 0.00
181, -6984.36, -7104.12, -9286.79, -7359.74, -56862.55, -120721.48, -167543.48, -157335.28, 0.06, 0.00, 0.00
182, -7014.69, -7131.44, -9308.92, -7384.08, -56889.70, -120747.67, -167570.94, -157362.25, 0.06, 0.00, 0.00
183, -6998.44, -7116.82, -9290.21, -7369.75, -56877.27, -120734.53, -167556.73, -157347.72, 0.06, 0.00, 0.00
184, -6967.82, -7089.44, -9258.58, -7343.80, -56852.78, -120709.61, -167530.00, -157321.42, 0.06, 0.00, 0.00
185, -6979.62, -7100.10, -9264.17, -7352.70, -56864.02, -120720.25, -167541.23, -157332.83, 0.06, 0.00, 0.00
186, -7009.15, -7126.27, -9285.07, -7375.63, -56889.79, -120745.15, -167567.61, -157358.89, 0.06, 0.00, 0.00
187, -7000.25, -7118.05, -9272.53, -7367.11, -56883.31, -120737.91, -167559.73, -157350.55, 0.06, 0.00, 0.00
188, -6963.77, -7085.08, -9235.45, -7335.66, -56853.36, -120707.55, -167527.28, -157318.41, 0.06, 0.00, 0.00
189, -6965.83, -7086.91, -9232.28, -7336.40, -56856.27, -120709.74, -167529.66, -157321.11, 0.06, 0.00, 0.00
190, -7002.24, -7119.72, -9259.86, -7365.95, -56888.63, -120741.28, -167562.73, -157354.00, 0.06, 0.00, 0.00
191, -7004.97, -7122.27, -9257.89, -7367.60, -56892.50, -120744.25, -167565.59, -157356.30, 0.06, 0.00, 0.00
192, -6969.52, -7090.33, -9221.97, -7337.16, -56863.64, -120715.06, -167534.34, -157325.11, 0.06, 0.00, 0.00
193, -6961.50, -7083.02, -9209.86, -7329.18, -56857.85, -120708.71, -167527.59, -157318.84, 0.06, 0.00, 0.00
194, -6992.74, -7110.76, -9232.19, -7353.79, -56885.16, -120735.16, -167555.56, -157346.64, 0.06, 0.00, 0.00
195, -7002.38, -7119.32, -9236.23, -7360.92, -56894.66, -120743.72, -167564.45, -157355.00, 0.06, 0.00, 0.00
196, -6971.75, -7092.01, -9205.03, -7334.99, -56870.28, -120718.95, -167537.77, -157328.31, 0.06, 0.00, 0.00
197, -6956.71, -7078.28, -9186.79, -7321.40, -56858.63, -120706.88, -167524.80, -157315.78, 0.06, 0.00, 0.00
198, -6984.16, -7102.60, -9205.79, -7342.77, -56882.62, -120730.13, -167549.39, -157340.36, 0.06, 0.00, 0.00
199, -6999.81, -7116.33, -9214.69, -7354.46, -56896.74, -120743.31, -167563.36, -157353.75, 0.06, 0.00, 0.00
200, -6970.50, -7089.86, -9184.24, -7329.07, -56873.07, -120718.99, -167537.38, -157327.55, 0.06, 0.00, 0.00
201, -6952.35, -7073.92, -9163.90, -7313.74, -56859.50, -120705.02, -167522.05, -157312.84, 0.06, 0.00, 0.00
202, -6976.40, -7095.52, -9180.22, -7332.85, -56880.98, -120725.84, -167544.05, -157334.97, 0.06, 0.00, 0.00
203, -7001.15, -7117.73, -9197.45, -7352.49, -56903.23, -120747.18, -167566.47, -157356.81, 0.06, 0.00, 0.00
204, -6979.91, -7098.56, -9174.34, -7334.03, -56886.73, -120729.91, -167547.78, -157337.97, 0.06, 0.00, 0.00
205, -6950.90, -7072.45, -9144.12, -7309.09, -56863.30, -120706.03, -167522.41, -157312.94, 0.06, 0.00, 0.00
206, -6967.84, -7087.56, -9154.13, -7322.14, -56878.80, -120720.92, -167538.02, -157328.66, 0.06, 0.00, 0.00
207, -7000.61, -7117.15, -9178.68, -7348.78, -56908.19, -120749.41, -167567.80, -157358.05, 0.06, 0.00, 0.00
208, -6986.33, -7104.26, -9161.64, -7336.07, -56897.23, -120737.84, -167555.31, -157345.14, 0.06, 0.00, 0.00
209, -6956.69, -7077.81, -9131.13, -7311.08, -56873.77, -120713.99, -167529.58, -157319.69, 0.06, 0.00, 0.00
210, -6967.33, -7087.49, -9135.78, -7319.17, -56884.20, -120723.71, -167539.70, -157330.27, 0.06, 0.00, 0.00
211, -6997.39, -7114.20, -9157.44, -7342.68, -56910.49, -120749.08, -167566.69, -157356.75, 0.06, 0.00, 0.00
212, -6990.37, -7107.65, -9146.80, -7335.80, -56905.62, -120743.47, -167560.56, -157350.13, 0.06, 0.00, 0.00
213, -6958.50, -7079.29, -9114.46, -7309.04, -56880.25, -120717.66, -167532.72, -157322.61, 0.06, 0.00, 0.00
214, -6956.33, -7077.05, -9107.35, -7305.89, -56879.11, -120715.98, -167530.92, -157321.23, 0.06, 0.00, 0.00
215, -6988.92, -7106.27, -9131.36, -7331.89, -56907.83, -120743.80, -167560.42, -157350.42, 0.06, 0.00, 0.00
216, -6991.02, -7107.94, -9128.61, -7332.65, -56910.60, -120745.84, -167562.42, -157351.89, 0.06, 0.00, 0.00
217, -6958.92, -7079.27, -9096.09, -7305.60, -56885.12, -120719.73, -167534.39, -157324.02, 0.06, 0.00, 0.00
218, -6950.01, -7071.15, -9083.35, -7297.22, -56878.68, -120712.80, -167526.78, -157317.00, 0.06, 0.00, 0.00
219, -6980.65, -7098.40, -9105.52, -7321.47, -56905.55, -120738.91, -167554.48, -157344.47, 0.06, 0.00, 0.00
220, -6993.73, -7110.13, -9112.92, -7331.73, -56918.13, -120750.63, -167566.59, -157356.03, 0.06, 0.00, 0.00
221, -6964.87, -7084.41, -9083.32, -7307.39, -56895.38, -120727.27, -167541.27, -157330.81, 0.06, 0.00, 0.00
222, -6946.45, -7067.67, -9062.16, -7291.00, -56880.65, -120712.09, -167525.05, -157315.11, 0.06, 0.00, 0.00
223, -6970.41, -7088.86, -9078.09, -7309.29, -56901.55, -120732.18, -167546.66, -157336.47, 0.06, 0.00, 0.00
224, -6989.41, -7105.78, -9090.32, -7324.09, -56918.74, -120748.48, -167563.84, -157353.08, 0.06, 0.00, 0.00
225, -6965.52, -7084.47, -9065.20, -7303.90, -56900.10, -120729.23, -167542.95, -157332.16, 0.06, 0.00, 0.00
226, -6942.03, -7063.40, -9039.92, -7283.79, -56881.57, -120710.30, -167522.52, -157312.20, 0.06, 0.00, 0.00
227, -6961.94, -7081.12, -9052.59, -7299.01, -56899.36, -120727.38, -167540.72, -157330.48, 0.06, 0.00, 0.00
228, -6985.21, -7101.57, -9068.19, -7316.78, -56919.77, -120746.89, -167561.44, -157350.63, 0.06, 0.00, 0.00
229, -6964.56, -7082.84, -9045.55, -7298.72, -56903.32, -120729.91, -167543.19, -157332.06, 0.06, 0.00, 0.00
230, -6937.82, -7059.17, -9017.74, -7276.30, -56882.39, -120708.60, -167520.08, -157309.45, 0.06, 0.00, 0.00
231, -6950.77, -7070.57, -9024.23, -7285.86, -56894.33, -120719.82, -167532.05, -157321.58, 0.06, 0.00, 0.00
232, -6980.32, -7096.92, -9045.66, -7309.33, -56920.44, -120744.97, -167558.70, -157347.78, 0.06, 0.00, 0.00
233, -6969.68, -7087.42, -9032.25, -7299.83, -56912.88, -120736.66, -167549.59, -157338.27, 0.06, 0.00, 0.00
234, -6936.44, -7057.59, -8998.43, -7271.47, -56885.99, -120709.45, -167520.34, -157309.42, 0.06, 0.00, 0.00
235, -6943.59, -7064.11, -9000.13, -7276.65, -56893.43, -120716.29, -167527.38, -157316.80, 0.06, 0.00, 0.00
236, -6975.96, -7092.95, -9023.98, -7302.34, -56921.89, -120743.76, -167556.53, -157345.55, 0.06, 0.00, 0.00
237, -6973.54, -7090.64, -9017.61, -7299.59, -56921.22, -120742.24, -167554.69, -157343.22, 0.06, 0.00, 0.00
238, -6941.02, -7061.63, -8984.80, -7272.23, -56895.20, -120715.80, -167526.31, -157315.08, 0.06, 0.00, 0.00
239, -6938.85, -7059.69, -8978.18, -7269.50, -56894.48, -120714.68, -167524.89, -157314.03, 0.06, 0.00, 0.00
240, -6969.85, -7087.25, -9000.60, -7293.89, -56921.58, -120740.88, -167552.63, -157341.55, 0.06, 0.00, 0.00
241, -6974.57, -7091.29, -9000.42, -7296.88, -56926.67, -120745.17, -167556.94, -157345.34, 0.06, 0.00, 0.00
242, -6940.91, -7061.01, -8966.42, -7268.18, -56899.40, -120717.43, -167527.17, -157315.78, 0.06, 0.00, 0.00
243, -6930.52, -7051.91, -8952.79, -7258.84, -56891.94, -120709.52, -167518.63, -157307.64, 0.06, 0.00, 0.00
244, -6962.21, -7080.23, -8976.01, -7284.19, -56920.05, -120736.77, -167547.48, -157336.30, 0.06, 0.00, 0.00
245, -6975.29, -7091.74, -8983.08, -7293.98, -56932.21, -120747.92, -167559.22, -157347.52, 0.06, 0.00, 0.00
246, -6946.72, -7066.15, -8953.77, -7269.73, -56909.42, -120724.72, -167534.14, -157322.48, 0.06, 0.00, 0.00
247, -6926.58, -7047.95, -8931.29, -7252.09, -56893.43, -120708.38, -167516.63, -157305.41, 0.06, 0.00, 0.00
248, -6951.82, -7070.42, -8948.77, -7271.96, -56915.74, -120729.95, -167539.55, -157328.27, 0.06, 0.00, 0.00
249, -6973.01, -7089.21, -8963.09, -7288.50, -56934.81, -120748.01, -167558.55, -157346.83, 0.06, 0.00, 0.00
250, -6948.38, -7067.04, -8937.21, -7267.29, -56915.34, -120727.84, -167536.89, -157324.94, 0.06, 0.00, 0.00
251, -6920.50, -7041.78, -8907.84, -7243.06, -56892.70, -120704.76, -167512.19, -157300.70, 0.06, 0.00, 0.00
252, -6941.38, -7060.47, -8921.63, -7259.65, -56911.59, -120723.02, -167531.34, -157320.05, 0.06, 0.00, 0.00
253, -6970.30, -7086.42, -8942.89, -7282.80, -56937.34, -120747.96, -167557.55, -157345.75, 0.06, 0.00, 0.00
254, -6953.23, -7071.04, -8923.75, -7267.87, -56924.23, -120734.20, -167542.61, -157330.58, 0.06, 0.00, 0.00
255, -6920.77, -7041.83, -8890.54, -7240.09, -56897.86, -120707.38, -167514.06, -157302.23, 0.06, 0.00, 0.00
0, -6933.87, -7053.58, -8897.47, -7250.17, -56910.22, -120719.02, -167526.36, -157314.83, 0.06, 0.00, 0.00
1, -6967.55, -7083.85, -8923.02, -7277.55, -56940.24, -120748.10, -167556.98, -157345.06, 0.06, 0.00, 0.00
2, -6960.42, -7077.63, -8912.87, -7271.25, -56935.86, -120742.87, -167551.06, -157338.73, 0.06, 0.00, 0.00
3, -6925.06, -7045.81, -8877.31, -7241.05, -56907.02, -120713.68, -167519.77, -157307.75, 0.06, 0.00, 0.00
4, -6926.18, -7046.50, -8873.44, -7240.51, -56908.59, -120714.88, -167521.06, -157309.36, 0.06, 0.00, 0.00
5, -6959.86, -7076.58, -8898.61, -7267.49, -56938.25, -120743.60, -167551.52, -157339.38, 0.06, 0.00, 0.00
6, -6958.30, -7074.86, -8892.84, -7265.26, -56937.96, -120742.48, -167550.06, -157337.55, 0.06, 0.00, 0.00
7, -6925.29, -7045.43, -8859.78, -7237.54, -56911.65, -120715.71, -167521.30, -157308.98, 0.06, 0.00, 0.00
8, -6921.64, -7042.30, -8852.18, -7233.85, -56909.95, -120713.48, -167518.73, -157306.81, 0.06, 0.00, 0.00
9, -6951.03, -7068.40, -8873.11, -7256.69, -56935.50, -120738.17, -167545.09, -157332.84, 0.06, 0.00, 0.00
10, -6958.43, -7074.86, -8875.45, -7262.01, -56942.95, -120744.73, -167551.84, -157339.20, 0.06, 0.00, 0.00
11, -6927.39, -7047.17, -8844.25, -7235.86, -56918.31, -120719.64, -167524.73, -157312.17, 0.06, 0.00, 0.00
12, -6914.42, -7035.46, -8828.31, -7224.28, -56908.50, -120709.38, -167513.73, -157301.64, 0.06, 0.00, 0.00
13, -6944.51, -7062.39, -8850.42, -7248.45, -56935.14, -120735.27, -167541.20, -157328.97, 0.06, 0.00, 0.00
14, -6961.29, -7077.39, -8861.06, -7261.72, -56950.72, -120749.88, -167556.41, -157343.72, 0.06, 0.00, 0.00
15, -6932.66, -7051.77, -8831.87, -7237.36, -56927.93, -120726.51, -167531.28, -157318.52, 0.06, 0.00, 0.00
16, -6913.64, -7034.90, -8810.95, -7221.25, -56913.38, -120711.53, -167515.05, -157302.67, 0.06, 0.00, 0.00
17, -6938.34, -7056.80, -8828.09, -7240.76, -56935.32, -120732.74, -167537.50, -157325.14, 0.06, 0.00, 0.00
18, -6964.33, -7080.18, -8847.09, -7261.90, -56958.81, -120755.43, -167561.20, -157348.30, 0.06, 0.00, 0.00
19, -6942.76, -7060.89, -8824.27, -7243.62, -56942.09, -120738.06, -167542.34, -157329.34, 0.06, 0.00, 0.00
20, -6911.36, -7032.24, -8791.75, -7216.06, -56916.05, -120711.59, -167514.31, -157301.83, 0.06, 0.00, 0.00
21, -6925.89, -7044.91, -8799.59, -7226.65, -56929.04, -120723.76, -167527.48, -157315.19, 0.06, 0.00, 0.00
22, -6954.25, -7070.28, -8820.31, -7249.27, -56954.16, -120747.98, -167553.08, -157340.20, 0.06, 0.00, 0.00
23, -6939.43, -7056.94, -8803.41, -7236.51, -56943.04, -120736.19, -167540.27, -157327.00, 0.06, 0.00, 0.00
24, -6908.45, -7029.22, -8772.08, -7210.47, -56918.36, -120711.11, -167513.22, -157300.42, 0.06, 0.00, 0.00
25, -6919.41, -7039.06, -8777.33, -7218.81, -56928.93, -120721.05, -167523.56, -157311.06, 0.06, 0.00, 0.00
26, -6951.88, -7068.18, -8801.63, -7244.96, -56957.65, -120748.81, -167552.98, -157340.09, 0.06, 0.00, 0.00
27, -6944.51, -7061.43, -8791.08, -7238.03, -56952.58, -120743.05, -167546.56, -157333.28, 0.06, 0.00, 0.00
28, -6910.18, -7030.54, -8756.70, -7208.86, -56924.77, -120714.95, -167516.42, -157303.34, 0.06, 0.00, 0.00
29, -6911.58, -7031.79, -8753.55, -7209.15, -56927.07, -120716.76, -167518.14, -157305.45, 0.06, 0.00, 0.00
30, -6947.19, -7063.96, -8780.97, -7238.30, -56958.81, -120747.49, -167550.58, -157337.59, 0.06, 0.00, 0.00
31, -6949.07, -7065.48, -8778.47, -7239.10, -56961.61, -120749.46, -167552.53, -157338.97, 0.06, 0.00, 0.00
32, -6914.62, -7034.50, -8743.91, -7209.82, -56933.73, -120721.23, -167522.20, -157308.78, 0.06, 0.00, 0.00
33, -6908.30, -7028.82, -8734.08, -7203.90, -56929.69, -120716.70, -167517.17, -157304.23, 0.06, 0.00, 0.00
34, -6938.92, -7056.11, -8756.63, -7228.24, -56956.54, -120742.64, -167544.83, -157331.67, 0.06, 0.00, 0.00
35, -6947.75, -7063.87, -8760.23, -7234.57, -56965.03, -120750.18, -167552.78, -157339.09, 0.06, 0.00, 0.00
36, -6913.30, -7032.46, -8725.50, -7204.84, -56936.73, -120721.37, -167521.98, -157308.42, 0.06, 0.00, 0.00
37, -6897.57, -7018.16, -8707.26, -7191.09, -56924.57, -120708.85, -167508.39, -157295.28, 0.06, 0.00, 0.00
38, -6925.55, -7043.35, -8727.62, -7213.44, -56949.45, -120732.88, -167533.94, -157320.72, 0.06, 0.00, 0.00
39, -6944.17, -7060.07, -8740.16, -7228.26, -56966.59, -120749.08, -167550.95, -157337.13, 0.06, 0.00, 0.00
40, -6918.78, -7037.20, -8713.85, -7206.74, -56946.57, -120728.49, -167528.53, -157314.67, 0.07, 0.00, 0.00
41, -6897.14, -7017.98, -8690.78, -7188.52, -56929.69, -120711.28, -167509.91, -157296.58, 0.07, 0.00, 0.00
42, -6916.84, -7035.23, -8703.46, -7203.54, -56947.04, -120727.87, -167527.70, -157314.39, 0.07, 0.00, 0.00
43, -6941.51, -7057.27, -8720.96, -7223.12, -56969.12, -120748.95, -167549.97, -157336.06, 0.07, 0.00, 0.00
44, -6920.41, -7038.16, -8698.29, -7204.84, -56952.40, -120731.65, -167531.34, -157317.25, 0.07, 0.01, 0.12
45, -6890.26, -7010.94, -8667.47, -7178.98, -56927.90, -120706.77, -167504.77, -157291.05, 0.07, 0.00, 0.00
46, -6906.93, -7025.89, -8677.86, -7192.12, -56943.23, -120721.50, -167520.16, -157306.70, 0.07, 0.00, 0.00
47, -6936.30, -7052.22, -8699.68, -7215.72, -56969.23, -120746.53, -167546.64, -157332.81, 0.07, 0.00, 0.00
48, -6921.35, -7038.54, -8682.40, -7202.36, -56957.70, -120734.15, -167533.42, -157319.22, 0.07, 0.00, 0.00
49, -6890.19, -7010.65, -8651.06, -7176.34, -56932.82, -120708.98, -167506.45, -157292.48, 0.07, 0.00, 0.00
50, -6899.83, -7019.39, -8655.49, -7184.01, -56942.50, -120718.10, -167515.72, -157302.08, 0.07, 0.00, 0.00
51, -6931.43, -7047.50, -8679.00, -7209.13, -56970.28, -120744.86, -167544.17, -157330.17, 0.07, 0.00, 0.00
52, -6924.37, -7040.69, -8668.43, -7202.11, -56965.09, -120738.89, -167537.72, -157323.23, 0.07, 0.00, 0.00
53, -6890.42, -7010.31, -8634.59, -7173.50, -56937.76, -120711.24, -167507.97, -157293.73, 0.07, 0.00, 0.00
54, -6892.03, -7012.01, -8632.11, -7174.51, -56940.66, -120713.59, -167510.27, -157296.44, 0.07, 0.00, 0.00
55, -6925.78, -7042.34, -8657.75, -7201.87, -56970.64, -120742.64, -167540.84, -157326.81, 0.07, 0.00, 0.00
56, -6928.50, -7044.58, -8656.20, -7203.43, -56974.01, -120745.21, -167543.48, -157328.92, 0.07, 0.00, 0.00
57, -6895.20, -7014.63, -8622.95, -7175.33, -56947.19, -120717.88, -167514.11, -157299.70, 0.07, 0.00, 0.00
58, -6884.25, -7004.72, -8608.93, -7165.34, -56938.79, -120709.18, -167504.61, -157290.73, 0.07, 0.00, 0.00
59, -6914.60, -7031.66, -8631.28, -7189.46, -56965.43, -120735.00, -167532.00, -157317.98, 0.07, 0.00, 0.00
60, -6927.50, -7043.08, -8638.70, -7199.41, -56977.57, -120746.27, -167543.75, -157329.14, 0.07, 0.00, 0.00
61, -6898.96, -7017.62, -8609.94, -7175.49, -56955.13, -120723.16, -167518.88, -157304.28, 0.07, 0.00, 0.00
62, -6881.14, -7001.55, -8590.13, -7160.05, -56941.22, -120708.87, -167503.56, -157289.31, 0.07, 0.00, 0.00
63, -6906.85, -7024.42, -8608.35, -7180.36, -56963.87, -120730.82, -167526.86, -157312.58, 0.07, 0.00, 0.00
64, -6928.46, -7043.73, -8623.55, -7197.75, -56983.58, -120749.53, -167546.55, -157331.59, 0.07, 0.00, 0.00
65, -6903.40, -7021.29, -8597.87, -7176.63, -56963.84, -120729.28, -167524.69, -157309.58, 0.07, 0.00, 0.00
66, -6879.20, -6999.65, -8572.50, -7155.93, -56944.60, -120709.70, -167503.56, -157288.92, 0.07, 0.00, 0.00
67, -6899.89, -7018.09, -8586.51, -7172.25, -56963.24, -120727.53, -167522.55, -157308.05, 0.07, 0.00, 0.00
68, -6927.01, -7042.41, -8606.54, -7194.13, -56987.52, -120750.87, -167547.08, -157332.11, 0.07, 0.00, 0.00
69, -6908.97, -7026.20, -8586.89, -7178.67, -56973.61, -120736.23, -167531.23, -157316.06, 0.07, 0.00, 0.00
70, -6879.35, -6999.60, -8556.90, -7153.50, -56949.88, -120712.09, -167505.28, -157290.56, 0.07, 0.00, 0.00
71, -6890.89, -7009.66, -8562.55, -7161.95, -56960.31, -120722.02, -167515.75, -157301.25, 0.07, 0.00, 0.00
72, -6923.07, -7038.59, -8587.07, -7188.10, -56989.04, -120749.73, -167544.95, -157329.94, 0.07, 0.00, 0.00
73, -6912.88, -7029.42, -8574.40, -7179.11, -56981.81, -120741.82, -167536.22, -157320.83, 0.07, 0.00, 0.00
74, -6880.40, -7000.28, -8541.99, -7151.82, -56955.68, -120715.29, -167507.75, -157292.70, 0.07, 0.00, 0.00
75, -6885.72, -7004.99, -8542.66, -7155.53, -56961.50, -120720.47, -167513.13, -157298.47, 0.07, 0.00, 0.00
76, -6920.01, -7035.75, -8568.94, -7183.31, -56991.83, -120749.82, -167544.09, -157329.13, 0.07, 0.00, 0.00
77, -6917.17, -7033.00, -8562.71, -7180.21, -56990.64, -120747.83, -167541.77, -157326.28, 0.07, 0.00, 0.00
78, -6879.89, -6999.25, -8525.71, -7148.33, -56960.00, -120716.74, -167508.64, -157293.36, 0.07, 0.00, 0.00
79, -6876.11, -6995.74, -8518.12, -7144.29, -56957.83, -120714.10, -167505.73, -157290.81, 0.07, 0.00, 0.00
80, -6909.46, -7025.64, -8543.46, -7171.31, -56987.27, -120742.73, -167536.02, -157320.78, 0.07, 0.00, 0.00
81, -6915.34, -7030.83, -8544.89, -7175.49, -56993.46, -120747.96, -167541.39, -157325.70, 0.07, 0.00, 0.00
82, -6883.40, -7002.11, -8513.15, -7148.69, -56967.80, -120721.86, -167513.33, -157297.69, 0.07, 0.00, 0.00
83, -6871.91, -6991.76, -8498.96, -7138.39, -56959.29, -120712.91, -167503.66, -157288.45, 0.07, 0.00, 0.00
84, -6901.48, -7018.05, -8520.80, -7161.97, -56985.35, -120738.11, -167530.34, -157314.98, 0.07, 0.00, 0.00
85, -6914.82, -7029.85, -8528.71, -7172.16, -56997.71, -120749.53, -167542.39, -157326.53, 0.07, 0.00, 0.00
86, -6891.42, -7009.40, -8505.26, -7153.32, -56980.20, -120731.45, -167522.55, -157306.63, 0.07, 0.00, 0.00
87, -6874.57, -6994.51, -8486.69, -7139.15, -56967.57, -120718.46, -167508.34, -157292.95, 0.07, 0.00, 0.00
88, -6894.98, -7012.21, -8499.94, -7154.35, -56985.23, -120735.42, -167526.52, -157311.11, 0.07, 0.00, 0.00
89, -6917.15, -7031.90, -8515.57, -7171.98, -57005.24, -120754.45, -167546.45, -157330.48, 0.07, 0.00, 0.00
90, -6895.45, -7012.44, -8493.04, -7153.77, -56988.39, -120736.95, -167527.55, -157311.45, 0.07, 0.00, 0.00
91, -6868.40, -6988.03, -8465.25, -7130.63, -56966.59, -120714.77, -167503.72, -157288.17, 0.07, 0.00, 0.00
92, -6887.62, -7005.35, -8478.28, -7145.92, -56984.09, -120731.55, -167521.38, -157305.97, 0.07, 0.00, 0.00
93, -6917.15, -7031.84, -8500.52, -7169.86, -57010.40, -120756.95, -167548.09, -157332.09, 0.07, 0.00, 0.00
94, -6897.64, -7013.82, -8479.29, -7152.49, -56994.69, -120740.50, -167530.61, -157314.23, 0.07, 0.00, 0.00
95, -6866.84, -6986.28, -8448.60, -7126.61, -56970.04, -120715.45, -167503.72, -157287.80, 0.07, 0.00, 0.00
96, -6879.49, -6997.66, -8455.80, -7136.60, -56982.02, -120726.88, -167515.61, -157299.91, 0.07, 0.00, 0.00
97, -6911.09, -7025.82, -8479.78, -7162.01, -57009.87, -120753.84, -167544.09, -157328.02, 0.07, 0.00, 0.00
98, -6904.41, -7019.99, -8470.66, -7156.34, -57005.95, -120749.04, -167538.72, -157322.13, 0.07, 0.00, 0.00
99, -6869.99, -6988.92, -8436.58, -7127.14, -56977.99, -120720.70, -167508.33, -157291.95, 0.07, 0.00, 0.00
100, -6871.42, -6989.86, -8433.45, -7127.28, -56979.98, -120722.15, -167509.80, -157293.91, 0.07, 0.00, 0.00
101, -6904.59, -7019.63, -8458.84, -7154.06, -57009.29, -120750.52, -167539.80, -157323.73, 0.07, 0.00, 0.00
102, -6905.66, -7020.71, -8456.38, -7154.66, -57011.59, -120751.96, -167541.11, -157324.52, 0.07, 0.00, 0.00
103, -6872.60, -6991.13, -8423.77, -7126.92, -56985.19, -120725.08, -167512.22, -157295.75, 0.07, 0.00, 0.00
104, -6867.75, -6986.84, -8415.77, -7122.36, -56982.39, -120721.79, -167508.53, -157292.48, 0.07, 0.00, 0.00
105, -6899.40, -7015.01, -8439.57, -7147.75, -57010.11, -120748.74, -167537.03, -157320.78, 0.07, 0.00, 0.00
106, -6907.96, -7022.34, -8443.46, -7154.12, -57018.49, -120756.21, -167544.78, -157328.00, 0.07, 0.00, 0.00
107, -6876.60, -6994.35, -8412.46, -7127.90, -56993.62, -120730.75, -167517.31, -157300.70, 0.07, 0.00, 0.00
108, -6861.29, -6980.49, -8395.02, -7114.36, -56981.73, -120718.33, -167504.02, -157287.92, 0.07, 0.00, 0.00
109, -6890.01, -7006.22, -8416.39, -7137.38, -57007.03, -120742.91, -167529.98, -157313.83, 0.07, 0.00, 0.00
110, -6907.07, -7021.44, -8427.86, -7150.90, -57022.74, -120757.77, -167545.52, -157328.77, 0.07, 0.00, 0.00
111, -6875.69, -6992.88, -8396.39, -7123.88, -56997.04, -120731.45, -167517.58, -157300.53, 0.07, 0.00, 0.00
112, -6852.82, -6972.36, -8372.45, -7104.32, -56978.82, -120712.78, -167497.69, -157281.11, 0.07, 0.00, 0.00
113, -6878.53, -6995.67, -8391.45, -7125.40, -57002.13, -120735.38, -167521.33, -157304.98, 0.07, 0.00, 0.00
114, -6901.82, -7016.30, -8408.17, -7143.89, -57022.90, -120755.27, -167542.34, -157325.39, 0.07, 0.00, 0.00
115, -6881.52, -6998.00, -8386.89, -7126.59, -57007.12, -120738.80, -167524.52, -157307.34, 0.07, 0.00, 0.00
116, -6856.51, -6975.82, -8361.50, -7105.87, -56987.71, -120718.88, -167503.05, -157286.34, 0.07, 0.00, 0.00
117, -6871.95, -6989.39, -8371.04, -7117.71, -57001.68, -120732.20, -167517.13, -157300.59, 0.07, 0.00, 0.00
118, -6900.16, -7014.42, -8392.01, -7140.09, -57026.50, -120756.08, -167542.39, -157325.34, 0.07, 0.00, 0.00
119, -6884.36, -7000.14, -8374.44, -7126.27, -57014.18, -120743.12, -167528.48, -157311.02, 0.07, 0.00, 0.00
120, -6852.15, -6971.26, -8342.43, -7099.11, -56988.25, -120716.88, -167500.19, -157283.14, 0.07, 0.00, 0.00
121, -6861.83, -6979.89, -8347.15, -7106.56, -56997.64, -120725.66, -167509.47, -157292.59, 0.07, 0.00, 0.00
122, -6892.09, -7006.78, -8369.88, -7130.74, -57024.17, -120751.05, -167536.58, -157319.33, 0.07, 0.00, 0.00
123, -6886.39, -7001.55, -8361.47, -7125.47, -57020.66, -120746.71, -167531.66, -157314.02, 0.06, 0.00, 0.00
124, -6852.53, -6971.15, -8328.17, -7096.99, -56993.37, -120719.04, -167501.89, -157284.58, 0.06, 0.00, 0.00
125, -6853.96, -6972.40, -8325.67, -7097.62, -56995.80, -120721.08, -167503.75, -157286.81, 0.06, 0.00, 0.00
126, -6885.75, -7000.68, -8349.65, -7122.88, -57023.68, -120748.05, -167532.39, -157315.11, 0.07, 0.00, 0.00
127, -6889.21, -7003.78, -8349.43, -7125.45, -57027.99, -120751.48, -167535.84, -157318.03, 0.06, 0.00, 0.00
128, -6855.19, -6973.19, -8315.99, -7096.72, -57000.55, -120723.45, -167505.80, -157288.28, 0.06, 0.00, 0.00
129, -6848.04, -6966.86, -8306.20, -7090.46, -56995.85, -120718.23, -167500.08, -157283.09, 0.06, 0.00, 0.00
130, -6878.32, -6993.79, -8329.00, -7114.56, -57022.36, -120744.03, -167527.33, -157310.05, 0.06, 0.00, 0.00
131, -6890.46, -7004.61, -8336.28, -7124.17, -57034.05, -120754.80, -167538.48, -157320.58, 0.06, 0.00, 0.00
132, -6859.91, -6977.25, -8306.13, -7098.51, -57009.66, -120729.84, -167511.59, -157293.72, 0.06, 0.00, 0.00
133, -6841.06, -6960.06, -8285.55, -7081.97, -56994.51, -120714.33, -167495.08, -157277.67, 0.06, 0.00, 0.00
134, -6867.44, -6983.51, -8304.95, -7102.96, -57017.82, -120736.88, -167519.03, -157301.53, 0.06, 0.00, 0.00
135, -6885.45, -6999.43, -8317.15, -7117.00, -57034.05, -120752.21, -167535.17, -157317.20, 0.06, 0.00, 0.00
136, -6857.76, -6974.41, -8289.23, -7093.39, -57011.74, -120729.32, -167510.56, -157292.59, 0.06, 0.00, 0.00
137, -6832.73, -6951.86, -8263.44, -7071.96, -56991.76, -120708.83, -167488.67, -157271.14, 0.06, 0.00, 0.00
138, -6854.07, -6970.68, -8278.28, -7088.81, -57010.74, -120727.16, -167508.14, -157290.63, 0.06, 0.00, 0.00
139, -6879.40, -6993.23, -8297.01, -7108.99, -57033.40, -120748.81, -167530.98, -157312.83, 0.06, 0.00, 0.00
140, -6862.88, -6978.75, -8279.53, -7095.36, -57021.27, -120735.96, -167516.89, -157298.47, 0.06, 0.00, 0.00
141, -6835.99, -6954.97, -8252.84, -7073.19, -57000.37, -120714.70, -167493.84, -157275.88, 0.06, 0.00, 0.00
142, -6850.41, -6967.84, -8261.79, -7084.50, -57013.73, -120727.38, -167507.30, -157289.52, 0.06, 0.00, 0.00
143, -6877.39, -6991.60, -8281.57, -7105.64, -57037.09, -120749.84, -167531.13, -157313.00, 0.06, 0.00, 0.00
144, -6868.69, -6983.91, -8271.02, -7098.40, -57031.50, -120743.49, -167523.80, -157305.45, 0.06, 0.00, 0.00
145, -6838.27, -6956.78, -8241.02, -7073.12, -57007.54, -120719.06, -167497.44, -157279.36, 0.06, 0.00, 0.00
146, -6845.02, -6962.77, -8243.30, -7078.17, -57014.43, -120725.43, -167504.09, -157286.25, 0.06, 0.00, 0.00
147, -6876.22, -6990.60, -8266.95, -7103.12, -57041.58, -120751.65, -167532.00, -157313.81, 0.06, 0.00, 0.00
148, -6872.83, -6987.36, -8260.62, -7099.83, -57039.97, -120749.26, -167529.20, -157310.48, 0.06, 0.00, 0.00
149, -6835.36, -6953.31, -8223.90, -7067.78, -57009.11, -120717.99, -167495.83, -157277.39, 0.06, 0.00, 0.00
150, -6831.85, -6949.96, -8216.97, -7064.07, -57007.09, -120715.53, -167493.00, -157275.05, 0.06, 0.00, 0.00
151, -6867.04, -6981.70, -8244.71, -7093.01, -57038.45, -120746.02, -167525.25, -157306.88, 0.06, 0.00, 0.00
152, -6874.46, -6988.50, -8248.24, -7099.07, -57046.37, -120752.97, -167532.36, -157313.45, 0.06, 0.00, 0.00
153, -6838.76, -6956.22, -8213.24, -7068.69, -57017.09, -120723.20, -167500.64, -157281.89, 0.06, 0.00, 0.00
154, -6827.07, -6945.60, -8199.22, -7058.26, -57008.32, -120714.03, -167490.64, -157272.34, 0.06, 0.00, 0.00
155, -6861.47, -6976.81, -8226.38, -7086.80, -57039.21, -120743.98, -167522.14, -157303.69, 0.06, 0.00, 0.00
156, -6877.45, -6991.16, -8237.38, -7099.72, -57054.17, -120758.09, -167536.75, -157317.86, 0.06, 0.00, 0.00
157, -6847.93, -6964.67, -8208.23, -7074.91, -57030.65, -120733.97, -167510.83, -157291.86, 0.06, 0.00, 0.00
158, -6826.51, -6945.07, -8185.61, -7056.24, -57013.40, -120716.27, -167491.97, -157273.38, 0.06, 0.00, 0.00
159, -6850.68, -6966.48, -8203.00, -7075.33, -57034.63, -120736.66, -167513.59, -157295.19, 0.06, 0.00, 0.00
160, -6874.90, -6988.38, -8221.28, -7095.27, -57056.80, -120757.84, -167535.80, -157316.91, 0.06, 0.00, 0.00
161, -6852.33, -6968.40, -8198.51, -7076.54, -57039.39, -120739.85, -167516.33, -157297.17, 0.06, 0.00, 0.00
162, -6824.90, -6943.52, -8170.70, -7053.03, -57017.11, -120717.23, -167492.09, -157273.38, 0.06, 0.00, 0.00
163, -6845.36, -6961.83, -8185.34, -7069.48, -57035.77, -120735.11, -167510.97, -157292.42, 0.06, 0.00, 0.00
164, -6872.87, -6986.48, -8206.33, -7091.72, -57060.27, -120758.73, -167535.91, -157316.88, 0.06, 0.00, 0.00
165, -6851.93, -6967.24, -8184.40, -7073.34, -57043.35, -120741.15, -167517.13, -157297.92, 0.06, 0.00, 0.00
166, -6819.11, -6937.58, -8151.99, -7045.43, -57016.66, -120714.03, -167488.20, -157269.23, 0.06, 0.00, 0.00
167, -6830.51, -6947.59, -8158.36, -7054.05, -57027.32, -120724.09, -167498.73, -157280.03, 0.06, 0.00, 0.00
168, -6862.95, -6976.63, -8183.62, -7080.50, -57056.04, -120751.83, -167528.05, -157308.91, 0.06, 0.00, 0.00
169, -6854.48, -6969.05, -8173.09, -7073.23, -57050.34, -120745.37, -167520.81, -157301.41, 0.06, 0.00, 0.00
170, -6819.05, -6937.13, -8138.40, -7043.19, -57021.40, -120715.98, -167489.59, -157270.47, 0.06, 0.00, 0.00
171, -6824.08, -6941.60, -8139.43, -7046.95, -57027.03, -120721.01, -167494.64, -157275.88, 0.06, 0.00, 0.00
172, -6858.68, -6972.76, -8166.75, -7075.18, -57057.72, -120750.78, -167526.13, -157306.91, 0.06, 0.00, 0.00
173, -6859.24, -6973.23, -8164.29, -7075.42, -57059.80, -120752.03, -167527.13, -157307.27, 0.06, 0.00, 0.00
174, -6825.53, -6943.14, -8131.61, -7047.28, -57032.75, -120724.61, -167497.59, -157278.00, 0.06, 0.00, 0.00
175, -6822.33, -6940.31, -8125.42, -7044.31, -57031.48, -120722.82, -167495.39, -157276.34, 0.06, 0.00, 0.00
176, -6852.33, -6966.93, -8148.10, -7068.16, -57057.59, -120747.98, -167522.27, -157302.94, 0.06, 0.00, 0.00
177, -6858.05, -6971.55, -8149.65, -7071.91, -57063.27, -120752.79, -167527.30, -157307.42, 0.06, 0.00, 0.00
178, -6823.07, -6939.93, -8115.60, -7042.23, -57034.70, -120723.73, -167496.28, -157276.50, 0.06, 0.00, 0.00
179, -6812.01, -6930.23, -8102.71, -7032.89, -57026.94, -120715.48, -167487.19, -157267.81, 0.06, 0.00, 0.00
180, -6843.81, -6958.92, -8127.47, -7058.97, -57055.35, -120743.16, -167516.23, -157296.78, 0.06, 0.00, 0.00
181, -6859.35, -6972.65, -8137.82, -7071.02, -57069.52, -120756.39, -167530.16, -157310.19, 0.06, 0.00, 0.00
182, -6830.27, -6946.56, -8109.17, -7046.59, -57046.23, -120732.56, -167504.55, -157284.64, 0.06, 0.00, 0.00
183, -6808.61, -6926.98, -8086.75, -7027.99, -57029.04, -120714.91, -167485.66, -157266.28, 0.06, 0.00, 0.00
184, -6832.70, -6948.33, -8104.45, -7047.26, -57050.39, -120735.63, -167507.56, -157288.19, 0.06, 0.00, 0.00
185, -6857.31, -6970.50, -8123.16, -7067.38, -57072.74, -120756.99, -167529.98, -157310.03, 0.06, 0.00, 0.00
186, -6835.63, -6951.21, -8101.28, -7049.27, -57055.98, -120739.56, -167511.09, -157291.03, 0.06, 0.00, 0.00
187, -6809.10, -6927.41, -8074.77, -7027.08, -57034.96, -120718.10, -167488.08, -157268.41, 0.06, 0.00, 0.00
188, -6827.38, -6943.70, -8087.33, -7041.60, -57051.62, -120734.09, -167504.89, -157285.36, 0.06, 0.00, 0.00
189, -6854.72, -6968.02, -8108.07, -7063.53, -57075.71, -120757.24, -167529.41, -157309.41, 0.06, 0.00, 0.00
190, -6838.99, -6953.78, -8091.26, -7049.99, -57063.64, -120744.50, -167515.61, -157295.28, 0.06, 0.00, 0.00
191, -6807.87, -6925.91, -8060.80, -7023.99, -57038.77, -120719.31, -167488.45, -157268.50, 0.06, 0.00, 0.00
192, -6818.42, -6935.46, -8066.83, -7032.40, -57049.00, -120728.95, -167498.47, -157278.84, 0.06, 0.00, 0.00
193, -6852.17, -6965.76, -8093.43, -7060.00, -57079.11, -120757.93, -167529.09, -157309.03, 0.06, 0.00, 0.00
194, -6845.22, -6959.51, -8084.42, -7053.85, -57074.55, -120752.59, -167523.19, -157302.66, 0.06, 0.00, 0.00
195, -6812.16, -6929.87, -8052.35, -7026.23, -57047.95, -120725.70, -167494.22, -157274.06, 0.06, 0.00, 0.00
196, -6812.83, -6930.34, -8049.44, -7026.09, -57049.68, -120726.84, -167495.30, -157275.50, 0.06, 0.00, 0.00
197, -6846.70, -6960.58, -8076.15, -7053.65, -57079.63, -120755.81, -167525.97, -157305.78, 0.06, 0.00, 0.00
198, -6845.98, -6959.60, -8072.38, -7052.27, -57080.03, -120755.38, -167525.36, -157304.69, 0.06, 0.00, 0.00
199, -6812.16, -6929.24, -8039.63, -7024.06, -57052.73, -120727.67, -167495.67, -157275.14, 0.06, 0.00, 0.00
200, -6806.49, -6924.30, -8031.47, -7019.16, -57049.38, -120723.89, -167491.27, -157271.27, 0.06, 0.00, 0.00
201, -6837.31, -6951.64, -8055.17, -7043.82, -57076.41, -120750.13, -167519.14, -157298.89, 0.06, 0.00, 0.00
202, -6848.04, -6961.20, -8061.65, -7052.33, -57086.82, -120759.59, -167529.02, -157308.20, 0.06, 0.00, 0.00
203, -6816.70, -6932.89, -8031.18, -7025.98, -57061.66, -120733.91, -167501.42, -157280.59, 0.06, 0.00, 0.00
204, -6801.26, -6918.96, -8014.35, -7012.73, -57049.85, -120721.45, -167488.13, -157267.81, 0.06, 0.00, 0.00
205, -6828.82, -6943.59, -8035.32, -7034.90, -57074.21, -120745.10, -167513.13, -157292.78, 0.06, 0.00, 0.00
206, -6846.45, -6959.19, -8047.79, -7048.89, -57090.33, -120760.41, -167529.09, -157308.20, 0.06, 0.00, 0.00
207, -6822.11, -6937.47, -8023.72, -7028.86, -57071.47, -120740.90, -167507.83, -157286.92, 0.06, 0.00, 0.00
208, -6797.86, -6915.56, -7999.06, -7008.10, -57051.95, -120720.83, -167486.58, -157266.06, 0.06, 0.00, 0.00
209, -6818.49, -6933.71, -8013.59, -7024.24, -57070.21, -120738.40, -167505.27, -157284.77, 0.06, 0.00, 0.00
210, -6843.01, -6955.57, -8032.19, -7043.91, -57092.07, -120759.41, -167527.41, -157306.39, 0.06, 0.00, 0.00
211, -6823.90, -6938.47, -8012.79, -7028.04, -57077.48, -120744.21, -167510.88, -157289.64, 0.06, 0.00, 0.00
212, -6797.88, -6915.29, -7987.10, -7006.51, -57057.16, -120723.45, -167488.36, -157267.56, 0.06, 0.00, 0.00
213, -6810.93, -6926.72, -7995.08, -7016.46, -57068.96, -120734.64, -167500.25, -157279.59, 0.06, 0.00, 0.00
214, -6838.65, -6951.21, -8016.05, -7038.47, -57093.21, -120757.91, -167525.05, -157303.89, 0.06, 0.00, 0.00
215, -6825.13, -6938.92, -8001.30, -7026.76, -57082.98, -120746.94, -167513.17, -157291.66, 0.06, 0.00, 0.00
216, -6791.78, -6908.83, -7968.93, -6998.64, -57056.00, -120719.55, -167483.84, -157262.67, 0.06, 0.00, 0.00
217, -6800.58, -6916.84, -7973.63, -7005.68, -57064.94, -120727.94, -167492.52, -157271.67, 0.06, 0.00, 0.00
218, -6833.20, -6946.01, -7999.24, -7032.17, -57093.62, -120755.67, -167521.98, -157300.64, 0.06, 0.00, 0.00
219, -6827.79, -6940.93, -7991.46, -7027.05, -57090.18, -120751.38, -167517.17, -157295.50, 0.06, 0.00, 0.00
220, -6789.99, -6906.73, -7955.01, -6994.93, -57059.11, -120719.98, -167483.72, -157262.33, 0.06, 0.00, 0.00
221, -6790.35, -6907.16, -7952.28, -6995.09, -57060.85, -120721.19, -167484.72, -157263.83, 0.06, 0.00, 0.00
222, -6825.64, -6938.96, -7980.47, -7024.13, -57092.32, -120751.63, -167516.84, -157295.59, 0.06, 0.00, 0.00
223, -6829.84, -6942.70, -7981.45, -7027.23, -57097.33, -120755.79, -167521.02, -157299.25, 0.06, 0.00, 0.00
224, -6794.33, -6910.67, -7947.30, -6997.30, -57068.38, -120726.39, -167489.69, -157267.98, 0.06, 0.00, 0.00
225, -6786.84, -6904.07, -7937.71, -6991.00, -57063.58, -120721.09, -167483.77, -157262.48, 0.06, 0.00, 0.00
226, -6818.56, -6932.48, -7962.58, -7016.79, -57091.67, -120748.27, -167512.44, -157291.13, 0.06, 0.00, 0.00
227, -6831.21, -6943.66, -7970.90, -7026.85, -57103.68, -120759.36, -167524.03, -157302.23, 0.06, 0.00, 0.00
228, -6800.27, -6915.79, -7940.81, -7000.81, -57078.73, -120733.95, -167496.75, -157274.83, 0.06, 0.00, 0.00
229, -6782.95, -6900.25, -7922.53, -6986.02, -57065.45, -120720.29, -167482.05, -157260.47, 0.06, 0.00, 0.00
230, -6807.83, -6922.40, -7941.26, -7005.89, -57087.45, -120741.48, -167504.64, -157283.14, 0.06, 0.00, 0.00
231, -6827.88, -6940.26, -7956.08, -7022.05, -57105.64, -120758.70, -167522.83, -157300.73, 0.06, 0.00, 0.00
232, -6802.80, -6917.66, -7931.31, -7000.97, -57085.79, -120738.24, -167500.69, -157278.56, 0.06, 0.00, 0.00
233, -6777.18, -6894.53, -7905.68, -6979.24, -57065.34, -120717.38, -167478.23, -157256.63, 0.06, 0.00, 0.00
234, -6795.85, -6910.87, -7918.64, -6993.79, -57081.93, -120733.32, -167495.20, -157273.63, 0.06, 0.00, 0.00
235, -6823.12, -6935.32, -7939.90, -7015.92, -57106.29, -120756.77, -167519.97, -157297.80, 0.06, 0.00, 0.00
236, -6802.15, -6916.19, -7918.60, -6997.82, -57089.62, -120739.36, -167501.33, -157278.89, 0.06, 0.00, 0.00
237, -6770.79, -6887.94, -7887.84, -6971.31, -57064.16, -120713.63, -167473.75, -157251.77, 0.06, 0.00, 0.00
238, -6784.51, -6900.16, -7896.85, -6982.22, -57077.03, -120725.86, -167486.52, -157264.80, 0.06, 0.00, 0.00
239, -6815.54, -6927.79, -7921.21, -7007.29, -57104.44, -120752.26, -167514.52, -157292.33, 0.06, 0.00, 0.00
240, -6806.04, -6919.14, -7910.30, -6999.27, -57097.91, -120745.04, -167506.52, -157283.91, 0.06, 0.00, 0.00
241, -6773.56, -6890.24, -7879.17, -6972.38, -57072.07, -120718.70, -167478.28, -157256.00, 0.06, 0.00, 0.00
242, -6778.10, -6894.08, -7880.00, -6975.44, -57076.94, -120723.02, -167482.64, -157260.72, 0.06, 0.00, 0.00
243, -6811.98, -6924.39, -7906.95, -7003.02, -57106.87, -120752.01, -167513.33, -157291.03, 0.06, 0.00, 0.00
244, -6809.77, -6922.36, -7902.41, -7000.88, -57106.29, -120750.60, -167511.61, -157288.91, 0.06, 0.00, 0.00
245, -6773.61, -6889.68, -7867.72, -6970.32, -57076.79, -120720.72, -167479.64, -157257.17, 0.06, 0.00, 0.00
246, -6771.42, -6887.89, -7862.94, -6968.33, -57076.41, -120719.82, -167478.39, -157256.36, 0.06, 0.00, 0.00
247, -6807.54, -6920.52, -7892.20, -6998.31, -57108.70, -120751.27, -167511.50, -157289.17, 0.06, 0.00, 0.00
248, -6814.35, -6926.58, -7895.55, -7003.52, -57115.81, -120757.53, -167517.88, -157295.08, 0.06, 0.00, 0.00
249, -6781.38, -6897.01, -7863.97, -6976.09, -57089.39, -120730.55, -167489.02, -157266.27, 0.06, 0.00, 0.00
250, -6769.72, -6886.55, -7850.78, -6966.10, -57080.79, -120721.52, -167479.20, -157256.92, 0.06, 0.00, 0.00
251, -6798.24, -6911.70, -7872.60, -6988.83, -57105.75, -120745.59, -167504.80, -157282.42, 0.06, 0.00, 0.00
252, -6813.39, -6925.22, -7883.26, -7000.90, -57119.81, -120758.78, -167518.63, -157295.66, 0.06, 0.00, 0.00
253, -6782.90, -6897.73, -7853.75, -6975.24, -57095.32, -120733.68, -167491.77, -157268.67, 0.06, 0.00, 0.00
254, -6759.79, -6876.60, -7830.02, -6955.10, -57076.52, -120714.48, -167471.31, -157248.67, 0.06, 0.00, 0.00
255, -6784.78, -6899.02, -7849.02, -6975.33, -57098.73, -120736.03, -167494.06, -157271.52, 0.06, 0.00, 0.00
0, -6807.98, -6919.76, -7866.83, -6994.24, -57119.79, -120756.16, -167515.20, -157292.06, 0.06, 0.00, 0.00
1, -6786.46, -6900.50, -7845.55, -6976.40, -57103.23, -120738.95, -167496.45, -157273.11, 0.06, 0.00, 0.00
2, -6759.57, -6876.31, -7819.02, -6953.72, -57081.70, -120716.98, -167472.92, -157250.08, 0.06, 0.00, 0.00
3, -6778.99, -6893.77, -7833.17, -6969.43, -57099.45, -120734.09, -167491.00, -157268.25, 0.06, 0.00, 0.00
4, -6806.20, -6917.86, -7854.20, -6991.27, -57123.48, -120757.22, -167515.45, -157292.30, 0.06, 0.00, 0.00
5, -6788.69, -6902.00, -7836.21, -6976.29, -57109.89, -120742.82, -167499.97, -157276.50, 0.06, 0.00, 0.00
6, -6756.84, -6873.25, -7805.50, -6949.56, -57084.12, -120716.74, -167472.03, -157248.97, 0.06, 0.00, 0.00
7, -6768.49, -6883.69, -7812.76, -6958.77, -57095.27, -120727.27, -167483.16, -157260.25, 0.06, 0.00, 0.00
8, -6801.73, -6913.57, -7839.36, -6986.04, -57124.82, -120755.88, -167513.28, -157289.94, 0.06, 0.00, 0.00
9, -6795.62, -6908.19, -7831.76, -6980.99, -57121.31, -120751.63, -167508.27, -157284.64, 0.06, 0.00, 0.00
10, -6764.15, -6880.25, -7801.79, -6955.13, -57096.46, -120726.38, -167481.03, -157257.72, 0.06, 0.00, 0.00
11, -6769.09, -6884.99, -7803.60, -6959.17, -57102.18, -120731.58, -167486.36, -157263.22, 0.06, 0.00, 0.00
12, -6800.90, -6913.13, -7828.52, -6984.70, -57129.92, -120758.54, -167514.86, -157291.50, 0.06, 0.00, 0.00
13, -6796.52, -6908.59, -7821.48, -6979.78, -57126.79, -120754.49, -167510.58, -157286.78, 0.06, 0.00, 0.00
14, -6761.13, -6876.74, -7787.77, -6950.10, -57098.09, -120725.41, -167479.41, -157255.89, 0.06, 0.00, 0.00
15, -6755.99, -6872.20, -7780.46, -6945.58, -57095.11, -120721.90, -167475.56, -157252.36, 0.06, 0.00, 0.00
16, -6785.12, -6897.99, -7802.86, -6968.69, -57120.53, -120746.47, -167501.78, -157278.25, 0.06, 0.00, 0.00
17, -6795.18, -6907.05, -7809.39, -6976.83, -57130.48, -120755.45, -167511.17, -157287.08, 0.06, 0.00, 0.00
18, -6765.36, -6880.34, -7780.91, -6952.31, -57106.87, -120731.36, -167485.14, -157261.11, 0.06, 0.00, 0.00
19, -6751.95, -6868.22, -7766.27, -6940.78, -57096.77, -120720.80, -167473.56, -157250.13, 0.06, 0.00, 0.00
20, -6779.93, -6893.21, -7788.02, -6963.35, -57121.49, -120744.77, -167498.89, -157275.45, 0.06, 0.00, 0.00
21, -6797.46, -6908.81, -7801.00, -6977.54, -57137.79, -120760.19, -167514.97, -157290.92, 0.06, 0.00, 0.00
22, -6769.23, -6883.42, -7773.69, -6953.83, -57115.19, -120736.99, -167490.13, -157266.00, 0.06, 0.00, 0.00
23, -6746.11, -6862.45, -7750.42, -6934.11, -57096.55, -120717.99, -167469.91, -157246.23, 0.06, 0.00, 0.00
24, -6769.76, -6883.60, -7768.46, -6953.23, -57117.80, -120738.48, -167491.67, -157267.89, 0.06, 0.00, 0.00
25, -6792.83, -6904.21, -7786.21, -6971.73, -57138.50, -120758.24, -167512.50, -157288.23, 0.06, 0.00, 0.00
26, -6768.26, -6881.81, -7761.84, -6950.63, -57118.63, -120737.77, -167490.59, -157266.16, 0.07, 0.00, 0.00
27, -6741.46, -6857.90, -7735.67, -6928.28, -57097.53, -120716.11, -167467.33, -157243.33, 0.07, 0.00, 0.00
28, -6758.70, -6873.36, -7748.08, -6942.25, -57113.40, -120731.34, -167483.31, -157259.47, 0.07, 0.00, 0.00
29, -6792.00, -6903.47, -7775.26, -6969.97, -57143.30, -120760.33, -167513.83, -157289.47, 0.07, 0.00, 0.00
30, -6778.73, -6891.51, -7761.26, -6958.75, -57133.54, -120749.84, -167502.36, -157277.80, 0.07, 0.00, 0.00
31, -6744.50, -6860.58, -7728.29, -6929.76, -57105.57, -120721.52, -167472.03, -157247.92, 0.07, 0.00, 0.00
32, -6750.49, -6865.65, -7730.55, -6933.87, -57111.45, -120726.82, -167477.75, -157253.81, 0.07, 0.00, 0.00
33, -6781.34, -6893.05, -7754.85, -6958.72, -57138.41, -120752.81, -167505.44, -157281.11, 0.07, 0.01, 0.12
34, -6776.11, -6888.41, -7748.03, -6954.23, -57135.44, -120749.04, -167501.16, -157276.39, 0.07, 0.00, 0.00
35, -6743.10, -6858.79, -7716.65, -6926.87, -57109.09, -120722.28, -167472.27, -157247.78, 0.07, 0.00, 0.00
36, -6742.69, -6858.32, -7713.45, -6925.93, -57109.87, -120722.48, -167472.45, -157248.27, 0.07, 0.00, 0.00
37, -6776.71, -6888.76, -7740.77, -6953.67, -57139.98, -120751.74, -167503.28, -157278.80, 0.07, 0.00, 0.00
38, -6781.50, -6893.08, -7742.78, -6957.58, -57145.61, -120756.48, -167508.02, -157283.00, 0.07, 0.00, 0.00
39, -6748.30, -6863.24, -7711.31, -6929.96, -57118.99, -120729.45, -167478.84, -157254.08, 0.07, 0.00, 0.00
40, -6742.45, -6858.36, -7703.73, -6925.22, -57115.66, -120725.70, -167474.55, -157250.19, 0.07, 0.00, 0.00
41, -6772.13, -6884.63, -7726.86, -6949.07, -57141.56, -120750.76, -167501.27, -157276.64, 0.07, 0.00, 0.00
42, -6779.75, -6890.95, -7730.82, -6954.28, -57148.65, -120757.02, -167507.91, -157282.69, 0.07, 0.00, 0.00
43, -6746.63, -6860.96, -7699.15, -6926.25, -57121.71, -120729.52, -167478.44, -157253.39, 0.07, 0.00, 0.00
44, -6731.85, -6847.81, -7683.68, -6913.95, -57110.80, -120718.05, -167466.11, -157241.45, 0.07, 0.00, 0.00
45, -6760.80, -6873.99, -7706.70, -6937.74, -57136.80, -120743.29, -167492.66, -157268.03, 0.07, 0.00, 0.00
46, -6778.93, -6889.95, -7720.11, -6952.22, -57153.16, -120758.78, -167508.97, -157283.81, 0.07, 0.00, 0.00
47, -6751.90, -6865.61, -7693.92, -6929.58, -57131.48, -120736.61, -167485.19, -157259.81, 0.07, 0.00, 0.00
48, -6728.05, -6844.13, -7670.38, -6909.50, -57112.59, -120717.25, -167464.47, -157239.63, 0.07, 0.00, 0.00
49, -6751.10, -6864.94, -7688.26, -6928.46, -57133.54, -120737.48, -167485.66, -157260.98, 0.07, 0.00, 0.00
50, -6777.03, -6888.14, -7708.78, -6949.63, -57156.74, -120759.79, -167509.13, -157283.94, 0.07, 0.00, 0.00
51, -6757.94, -6870.88, -7689.78, -6933.53, -57141.94, -120744.32, -167492.44, -157267.00, 0.07, 0.00, 0.00
52, -6727.67, -6843.59, -7660.46, -6907.99, -57117.51, -120719.47, -167465.80, -157240.73, 0.07, 0.00, 0.00
53, -6741.26, -6855.68, -7669.62, -6918.67, -57130.14, -120731.40, -167478.42, -157253.48, 0.07, 0.00, 0.00
54, -6770.72, -6881.88, -7692.96, -6942.38, -57156.18, -120756.44, -167504.95, -157279.61, 0.07, 0.00, 0.00
55, -6758.21, -6870.46, -7679.59, -6931.63, -57146.79, -120746.34, -167494.00, -157268.36, 0.07, 0.00, 0.00
56, -6723.40, -6839.03, -7646.44, -6902.35, -57118.41, -120717.59, -167463.31, -157238.02, 0.07, 0.00, 0.00
57, -6732.39, -6847.32, -7652.05, -6909.84, -57127.50, -120726.26, -167472.25, -157247.22, 0.07, 0.00, 0.00
58, -6762.39, -6873.99, -7675.68, -6933.89, -57153.86, -120751.52, -167499.19, -157273.70, 0.07, 0.00, 0.00
59, -6759.48, -6871.24, -7671.03, -6931.21, -57152.76, -120749.64, -167496.81, -157271.03, 0.07, 0.00, 0.00
60, -6726.94, -6842.18, -7640.30, -6904.32, -57126.86, -120723.29, -167468.45, -157242.86, 0.07, 0.00, 0.00
61, -6723.34, -6838.76, -7634.31, -6900.77, -57124.91, -120720.78, -167465.67, -157240.50, 0.07, 0.00, 0.00
62, -6756.95, -6868.94, -7661.55, -6928.26, -57154.68, -120749.73, -167496.28, -157270.75, 0.07, 0.00, 0.00
63, -6761.27, -6872.58, -7662.98, -6931.30, -57159.42, -120753.59, -167500.38, -157274.30, 0.07, 0.00, 0.00
64, -6725.37, -6840.15, -7628.76, -6900.92, -57130.05, -120723.73, -167468.47, -157242.59, 0.07, 0.00, 0.00
65, -6714.11, -6829.96, -7616.29, -6891.13, -57121.71, -120714.99, -167458.86, -157233.55, 0.07, 0.00, 0.00
66, -6744.62, -6857.31, -7640.81, -6916.12, -57148.89, -120741.34, -167486.67, -157261.14, 0.07, 0.00, 0.00
67, -6757.00, -6868.04, -7649.19, -6925.80, -57160.32, -120751.85, -167497.75, -157271.73, 0.07, 0.00, 0.00
68, -6727.25, -6841.33, -7620.87, -6900.85, -57136.51, -120727.53, -167471.64, -157245.55, 0.07, 0.00, 0.00
69, -6710.91, -6826.92, -7604.31, -6887.49, -57124.35, -120714.93, -167458.02, -157232.33, 0.07, 0.00, 0.00
70, -6736.84, -6850.05, -7624.54, -6908.48, -57147.39, -120737.28, -167481.61, -157255.92, 0.07, 0.00, 0.00
71, -6757.02, -6868.00, -7639.94, -6924.64, -57165.57, -120754.53, -167499.88, -157273.58, 0.07, 0.00, 0.00
72, -6731.59, -6845.06, -7615.40, -6903.16, -57145.38, -120733.70, -167477.50, -157251.05, 0.07, 0.00, 0.00
73, -6705.28, -6821.39, -7589.78, -6881.05, -57124.30, -120712.24, -167454.55, -157228.58, 0.07, 0.00, 0.00
