%OpenBCI Raw EEG Data
%
%Sample Rate = 250.0 Hz
%First Column = SampleIndex
%Other Columns = EEG data in microvolts followed by Accel Data (in G) interleaved with Aux Data
0, 0.00, 0.00, 0.00, 0.00, 0.00, 0.00, 0.00, 0.00, 19694.93, -59491.45, -69053.03, -51332.81, -76358.97, -70706.50, -78889.90, -73364.32, 0.07, -0.05, 0.49
1, -6357.80, 5235.90, -6478.68, -6512.14, -173576.56, -163524.19, -166506.94, -171001.66, 19694.93, -59491.45, -69053.03, -51332.81, -76358.97, -70706.50, -78889.90, -73364.32, 0.00, 0.00, 0.00
2, -6357.80, 5235.90, -6478.68, -6512.14, -173576.56, -163524.19, -166506.94, -171001.66, 39384.24, -118979.98, -138104.72, -102660.76, -152718.42, -141415.58, -157782.95, -146731.42, 0.00, 0.00, 0.00
3, -6360.70, 5239.03, -6481.40, -6514.82, -173578.77, -163525.52, -166508.16, -171004.20, 39384.24, -118979.98, -138104.72, -102660.76, -152718.42, -141415.58, -157782.95, -146731.42, 0.00, 0.00, 0.00
4, -6360.70, 5239.03, -6481.40, -6514.82, -173578.77, -163525.52, -166508.16, -171004.20, 39376.29, -118972.88, -138099.88, -102650.98, -152715.98, -141415.95, -157784.31, -146732.56, 0.00, 0.00, 0.00
5, -6357.71, 5235.72, -6478.59, -6511.85, -173575.45, -163521.00, -166503.34, -171000.42, 39376.29, -118972.88, -138099.88, -102650.98, -152715.98, -141415.95, -157784.31, -146732.56, 0.00, 0.00, 0.00
6, -6357.71, 5235.72, -6478.59, -6511.85, -173575.45, -163521.00, -166503.34, -171000.42, 39356.97, -118962.10, -138091.28, -102637.55, -152709.58, -141411.95, -157781.09, -146728.63, 0.00, 0.00, 0.00
7, -6358.56, 5236.70, -6479.28, -6512.49, -173575.50, -163520.08, -166502.30, -171000.72, 39356.97, -118962.10, -138091.28, -102637.55, -152709.58, -141411.95, -157781.09, -146728.63, 0.12, -0.10, 1.00
8, -6358.56, 5236.70, -6479.28, -6512.49, -173575.50, -163520.08, -166502.30, -171000.72, 39351.34, -118955.91, -138087.19, -102628.63, -152707.92, -141413.31, -157783.39, -146730.77, 0.00, 0.00, 0.00
9, -6356.28, 5234.55, -6477.13, -6510.30, -173572.84, -163516.27, -166498.39, -170997.77, 39351.34, -118955.91, -138087.19, -102628.63, -152707.92, -141413.31, -157783.39, -146730.77, 0.00, 0.00, 0.00
10, -6356.28, 5234.55, -6477.13, -6510.30, -173572.84, -163516.27, -166498.39, -170997.77, 39331.20, -118945.30, -138078.86, -102615.34, -152701.80, -141409.48, -157780.36, -146726.88, 0.00, 0.00, 0.00
11, -6356.88, 5235.36, -6477.60, -6510.75, -173572.83, -163515.23, -166497.22, -170997.95, 39331.20, -118945.30, -138078.86, -102615.34, -152701.80, -141409.48, -157780.36, -146726.88, 0.00, 0.00, 0.00
12, -6356.88, 5235.36, -6477.60, -6510.75, -173572.83, -163515.23, -166497.22, -170997.95, 39329.21, -118941.83, -138077.52, -102609.21, -152703.00, -141413.63, -157785.50, -146731.89, 0.00, 0.00, 0.00
13, -6359.97, 5238.27, -6480.80, -6513.97, -173575.33, -163516.64, -166498.56, -171000.39, 39329.21, -118941.83, -138077.52, -102609.21, -152703.00, -141413.63, -157785.50, -146731.89, 0.00, 0.00, 0.00
14, -6359.97, 5238.27, -6480.80, -6513.97, -173575.33, -163516.64, -166498.56, -171000.39, 39310.08, -118933.38, -138071.44, -102598.08, -152699.02, -141412.02, -157784.58, -146730.09, 0.00, 0.00, 0.00
15, -6358.11, 5236.43, -6478.79, -6512.00, -173572.78, -163513.27, -166494.92, -170998.03, 39310.08, -118933.38, -138071.44, -102598.08, -152699.02, -141412.02, -157784.58, -146730.09, 0.00, 0.00, 0.00
16, -6358.11, 5236.43, -6478.79, -6512.00, -173572.78, -163513.27, -166494.92, -170998.03, 39305.95, -118926.99, -138067.06, -102588.96, -152697.20, -141413.11, -157786.80, -146732.16, 0.00, 0.00, 0.00
17, -6359.07, 5237.77, -6479.99, -6513.19, -173573.45, -163512.84, -166494.31, -170998.58, 39305.95, -118926.99, -138067.06, -102588.96, -152697.20, -141413.11, -157786.80, -146732.16, 0.13, -0.10, 0.99
18, -6359.07, 5237.77, -6479.99, -6513.19, -173573.45, -163512.84, -166494.31, -170998.58, 39284.82, -118916.71, -138059.08, -102576.04, -152691.41, -141409.61, -157783.94, -146728.42, 0.00, 0.00, 0.00
19, -6357.80, 5236.57, -6478.63, -6511.91, -173571.50, -163509.83, -166491.17, -170996.78, 39284.82, -118916.71, -138059.08, -102576.04, -152691.41, -141409.61, -157783.94, -146728.42, 0.00, 0.00, 0.00
20, -6357.80, 5236.57, -6478.63, -6511.91, -173571.50, -163509.83, -166491.17, -170996.78, 39280.84, -118910.20, -138054.77, -102566.83, -152689.52, -141410.67, -157786.13, -146730.55, 0.00, 0.00, 0.00
21, -6356.52, 5235.25, -6477.31, -6510.71, -173569.63, -163507.00, -166488.17, -170994.95, 39280.84, -118910.20, -138054.77, -102566.83, -152689.52, -141410.67, -157786.13, -146730.55, 0.00, 0.00, 0.00
22, -6356.52, 5235.25, -6477.31, -6510.71, -173569.63, -163507.00, -166488.17, -170994.95, 39259.74, -118900.23, -138047.03, -102554.13, -152683.95, -141407.38, -157783.50, -146727.06, 0.00, 0.00, 0.00
23, -6357.01, 5235.47, -6477.67, -6510.86, -173569.31, -163505.55, -166486.61, -170994.59, 39259.74, -118900.23, -138047.03, -102554.13, -152683.95, -141407.38, -157783.50, -146727.06, 0.00, 0.00, 0.00
24, -6357.01, 5235.47, -6477.67, -6510.86, -173569.31, -163505.55, -166486.61, -170994.59, 39255.59, -118893.62, -138042.58, -102545.06, -152681.98, -141408.42, -157785.66, -146729.08, 0.00, 0.00, 0.00
25, -6354.53, 5233.39, -6475.23, -6508.36, -173566.34, -163501.66, -166482.53, -170991.75, 39255.59, -118893.62, -138042.58, -102545.06, -152681.98, -141408.42, -157785.66, -146729.08, 0.00, 0.00, 0.00
26, -6354.53, 5233.39, -6475.23, -6508.36, -173566.34, -163501.66, -166482.53, -170991.75, 39234.04, -118882.60, -138033.89, -102531.36, -152675.38, -141404.17, -157781.94, -146724.64, 0.13, -0.10, 0.99
27, -6354.58, 5233.19, -6475.01, -6508.16, -173565.61, -163499.83, -166480.45, -170990.81, 39234.04, -118882.60, -138033.89, -102531.36, -152675.38, -141404.17, -157781.94, -146724.64, 0.00, 0.00, 0.00
28, -6354.58, 5233.19, -6475.01, -6508.16, -173565.61, -163499.83, -166480.45, -170990.81, 39229.01, -118876.01, -138029.39, -102522.02, -152673.36, -141405.11, -157783.91, -146726.48, 0.00, 0.00, 0.00
29, -6353.91, 5232.72, -6474.38, -6507.49, -173564.53, -163497.66, -166478.22, -170989.92, 39229.01, -118876.01, -138029.39, -102522.02, -152673.36, -141405.11, -157783.91, -146726.48, 0.00, 0.00, 0.00
30, -6353.91, 5232.72, -6474.38, -6507.49, -173564.53, -163497.66, -166478.22, -170989.92, 39210.70, -118867.49, -138023.11, -102510.75, -152669.34, -141403.41, -157782.95, -146724.77, 0.00, 0.00, 0.00
31, -6355.96, 5234.47, -6476.37, -6509.45, -173565.84, -163497.94, -166478.33, -170991.13, 39210.70, -118867.49, -138023.11, -102510.75, -152669.34, -141403.41, -157782.95, -146724.77, 0.00, 0.00, 0.00
32, -6355.96, 5234.47, -6476.37, -6509.45, -173565.84, -163497.94, -166478.33, -170991.13, 39206.70, -118862.86, -138020.59, -102503.48, -152669.31, -141406.36, -157786.80, -146728.45, 0.00, 0.00, 0.00
33, -6356.17, 5235.23, -6476.62, -6509.70, -173565.67, -163496.66, -166476.95, -170991.06, 39206.70, -118862.86, -138020.59, -102503.48, -152669.31, -141406.36, -157786.80, -146728.45, 0.00, 0.00, 0.00
34, -6356.17, 5235.23, -6476.62, -6509.70, -173565.67, -163496.66, -166476.95, -170991.06, 39189.04, -118853.61, -138013.77, -102491.69, -152664.63, -141404.02, -157785.30, -146726.19, 0.00, 0.00, 0.00
35, -6355.47, 5234.24, -6476.02, -6509.14, -173564.39, -163494.36, -166474.27, -170989.55, 39189.04, -118853.61, -138013.77, -102491.69, -152664.63, -141404.02, -157785.30, -146726.19, 0.00, 0.00, 0.00
36, -6355.47, 5234.24, -6476.02, -6509.14, -173564.39, -163494.36, -166474.27, -170989.55, 39182.43, -118847.84, -138010.19, -102483.41, -152663.50, -141405.69, -157787.98, -146728.56, 0.13, -0.09, 0.99
37, -6356.55, 5235.67, -6477.07, -6510.15, -173564.98, -163493.97, -166473.80, -170990.42, 39182.43, -118847.84, -138010.19, -102483.41, -152663.50, -141405.69, -157787.98, -146728.56, 0.00, 0.00, 0.00
38, -6356.55, 5235.67, -6477.07, -6510.15, -173564.98, -163493.97, -166473.80, -170990.42, 39164.93, -118837.43, -138001.98, -102470.14, -152657.33, -141402.16, -157785.14, -146725.25, 0.00, 0.00, 0.00
39, -6353.53, 5232.48, -6474.18, -6507.24, -173561.47, -163489.30, -166468.92, -170986.53, 39164.93, -118837.43, -138001.98, -102470.14, -152657.33, -141402.16, -157785.14, -146725.25, 0.00, 0.00, 0.00
40, -6353.53, 5232.48, -6474.18, -6507.24, -173561.47, -163489.30, -166468.92, -170986.53, 39155.85, -118830.61, -137997.45, -102460.77, -152655.19, -141402.67, -157786.61, -146726.36, 0.00, 0.00, 0.00
41, -6356.79, 5236.45, -6477.45, -6510.48, -173564.23, -163491.16, -166470.69, -170989.72, 39155.85, -118830.61, -137997.45, -102460.77, -152655.19, -141402.67, -157786.61, -146726.36, 0.00, 0.00, 0.00
42, -6356.79, 5236.45, -6477.45, -6510.48, -173564.23, -163491.16, -166470.69, -170989.72, 39145.41, -118825.45, -137994.44, -102452.80, -152654.55, -141404.50, -157789.39, -146728.47, 0.00, 0.00, 0.00
43, -6356.01, 5235.36, -6476.80, -6509.86, -173562.98, -163488.77, -166468.08, -170988.14, 39145.41, -118825.45, -137994.44, -102452.80, -152654.55, -141404.50, -157789.39, -146728.47, 0.00, 0.00, 0.00
44, -6356.01, 5235.36, -6476.80, -6509.86, -173562.98, -163488.77, -166468.08, -170988.14, 39130.95, -118815.23, -137986.41, -102439.85, -152648.89, -141401.56, -157787.23, -146725.98, 0.00, 0.00, 0.00
45, -6354.60, 5234.24, -6475.28, -6508.20, -173560.78, -163485.53, -166464.83, -170986.44, 39130.95, -118815.23, -137986.41, -102439.85, -152648.89, -141401.56, -157787.23, -146725.98, 0.00, 0.00, 0.00
46, -6354.60, 5234.24, -6475.28, -6508.20, -173560.78, -163485.53, -166464.83, -170986.44, 39119.17, -118806.98, -137980.39, -102428.84, -152645.25, -141400.66, -157787.17, -146725.36, 0.13, -0.10, 0.99
47, -6352.88, 5232.19, -6473.53, -6506.57, -173558.61, -163482.16, -166461.13, -170983.83, 39119.17, -118806.98, -137980.39, -102428.84, -152645.25, -141400.66, -157787.17, -146725.36, 0.00, 0.00, 0.00
48, -6352.88, 5232.19, -6473.53, -6506.57, -173558.61, -163482.16, -166461.13, -170983.83, 39104.38, -118798.00, -137973.52, -102417.14, -152640.70, -141398.69, -157786.13, -146723.75, 0.00, 0.00, 0.00
49, -6353.30, 5233.19, -6473.85, -6506.97, -173558.50, -163481.06, -166460.00, -170984.00, 39104.38, -118798.00, -137973.52, -102417.14, -152640.70, -141398.69, -157786.13, -146723.75, 0.00, 0.00, 0.00
50, -6353.30, 5233.19, -6473.85, -6506.97, -173558.50, -163481.06, -166460.00, -170984.00, 39094.29, -118789.55, -137967.34, -102406.08, -152636.86, -141397.63, -157785.97, -146723.38, 0.00, 0.00, 0.00
51, -6350.91, 5230.60, -6471.61, -6504.80, -173555.61, -163477.13, -166455.80, -170980.72, 39094.29, -118789.55, -137967.34, -102406.08, -152636.86, -141397.63, -157785.97, -146723.38, 0.00, 0.00, 0.00
52, -6350.91, 5230.60, -6471.61, -6504.80, -173555.61, -163477.13, -166455.80, -170980.72, 39081.11, -118784.01, -137964.13, -102397.80, -152635.78, -141399.09, -157788.05, -146724.92, 0.00, 0.00, 0.00
53, -6358.09, 5237.86, -6478.52, -6511.62, -173562.09, -163482.59, -166461.14, -170987.59, 39081.11, -118784.01, -137964.13, -102397.80, -152635.78, -141399.09, -157788.05, -146724.92, 0.00, 0.00, 0.00
54, -6358.09, 5237.86, -6478.52, -6511.62, -173562.09, -163482.59, -166461.14, -170987.59, 39078.02, -118781.21, -137963.44, -102392.29, -152637.63, -141403.72, -157793.59, -146730.25, 0.00, 0.00, 0.00
55, -6355.94, 5235.47, -6476.51, -6509.50, -173559.48, -163478.80, -166457.23, -170984.53, 39078.02, -118781.21, -137963.44, -102392.29, -152637.63, -141403.72, -157793.59, -146730.25, 0.00, 0.00, 0.00
56, -6355.94, 5235.47, -6476.51, -6509.50, -173559.48, -163478.80, -166457.23, -170984.53, 39055.76, -118767.69, -137952.23, -102376.13, -152628.59, -141397.06, -157787.70, -146723.73, 0.13, -0.10, 0.99
57, -6354.49, 5234.44, -6474.90, -6508.00, -173557.41, -163475.72, -166453.91, -170982.77, 39055.76, -118767.69, -137952.23, -102376.13, -152628.59, -141397.06, -157787.70, -146723.73, 0.00, 0.00, 0.00
58, -6354.49, 5234.44, -6474.90, -6508.00, -173557.41, -163475.72, -166453.91, -170982.77, 39051.47, -118762.32, -137949.00, -102368.15, -152627.73, -141399.25, -157790.97, -146726.66, 0.00, 0.00, 0.00
59, -6352.86, 5232.74, -6473.38, -6506.44, -173555.28, -163472.47, -166450.50, -170980.48, 39051.47, -118762.32, -137949.00, -102368.15, -152627.73, -141399.25, -157790.97, -146726.66, 0.00, 0.00, 0.00
60, -6352.86, 5232.74, -6473.38, -6506.44, -173555.28, -163472.47, -166450.50, -170980.48, 39030.01, -118751.08, -137940.19, -102354.11, -152620.91, -141394.81, -157787.17, -146722.25, 0.00, 0.00, 0.00
61, -6353.44, 5233.15, -6473.78, -6506.59, -173555.03, -163471.22, -166449.13, -170980.45, 39030.01, -118751.08, -137940.19, -102354.11, -152620.91, -141394.81, -157787.17, -146722.25, 0.00, 0.00, 0.00
62, -6353.44, 5233.15, -6473.78, -6506.59, -173555.03, -163471.22, -166449.13, -170980.45, 39026.97, -118746.09, -137937.38, -102346.49, -152620.66, -141397.58, -157790.77, -146725.78, 0.00, 0.00, 0.00
63, -6353.75, 5233.53, -6474.16, -6507.13, -173554.97, -163470.02, -166447.89, -170980.17, 39026.97, -118746.09, -137937.38, -102346.49, -152620.66, -141397.58, -157790.77, -146725.78, 0.00, 0.00, 0.00
64, -6353.75, 5233.53, -6474.16, -6507.13, -173554.97, -163470.02, -166447.89, -170980.17, 39007.30, -118737.20, -137930.64, -102334.80, -152616.23, -141395.45, -157789.34, -146723.42, 0.00, 0.00, 0.00
65, -6354.78, 5234.58, -6474.90, -6507.96, -173555.23, -163469.30, -166446.97, -170980.58, 39007.30, -118737.20, -137930.64, -102334.80, -152616.23, -141395.45, -157789.34, -146723.42, 0.00, 0.00, 0.00
66, -6354.78, 5234.58, -6474.90, -6507.96, -173555.23, -163469.30, -166446.97, -170980.58, 39004.87, -118732.15, -137927.73, -102327.18, -152615.72, -141397.95, -157792.97, -146726.88, 0.13, -0.10, 0.98
67, -6353.77, 5233.84, -6474.16, -6507.08, -173553.80, -163466.75, -166444.41, -170979.00, 39004.87, -118732.15, -137927.73, -102327.18, -152615.72, -141397.95, -157792.97, -146726.88, 0.00, 0.00, 0.00
68, -6353.77, 5233.84, -6474.16, -6507.08, -173553.80, -163466.75, -166444.41, -170979.00, 38982.36, -118720.62, -137918.66, -102312.91, -152608.67, -141393.16, -157788.92, -146722.08, 0.00, 0.00, 0.00
69, -6354.53, 5234.13, -6474.70, -6507.55, -173553.73, -163465.61, -166443.02, -170978.97, 38982.36, -118720.62, -137918.66, -102312.91, -152608.67, -141393.16, -157788.92, -146722.08, 0.00, 0.00, 0.00
70, -6354.53, 5234.13, -6474.70, -6507.55, -173553.73, -163465.61, -166443.02, -170978.97, 38981.06, -118716.88, -137917.14, -102306.63, -152609.66, -141397.16, -157793.88, -146726.92, 0.00, 0.00, 0.00
71, -6354.44, 5234.29, -6474.58, -6507.51, -173553.13, -163464.06, -166441.28, -170978.45, 38981.06, -118716.88, -137917.14, -102306.63, -152609.66, -141397.16, -157793.88, -146726.92, 0.00, 0.00, 0.00
72, -6354.44, 5234.29, -6474.58, -6507.51, -173553.13, -163464.06, -166441.28, -170978.45, 38959.09, -118705.75, -137908.34, -102292.84, -152602.95, -141392.70, -157790.25, -146722.39, 0.00, 0.00, 0.00
73, -6352.83, 5232.54, -6472.80, -6505.70, -173550.77, -163460.56, -166437.52, -170976.02, 38959.09, -118705.75, -137908.34, -102292.84, -152602.95, -141392.70, -157790.25, -146722.39, 0.00, 0.00, 0.00
74, -6352.83, 5232.54, -6472.80, -6505.70, -173550.77, -163460.56, -166437.52, -170976.02, 38954.42, -118698.91, -137903.44, -102283.30, -152600.72, -141393.42, -157791.95, -146724.09, 0.00, 0.00, 0.00
75, -6352.34, 5232.39, -6472.31, -6505.30, -173549.84, -163458.59, -166435.52, -170975.22, 38954.42, -118698.91, -137903.44, -102283.30, -152600.72, -141393.42, -157791.95, -146724.09, 0.00, 0.00, 0.00
76, -6352.34, 5232.39, -6472.31, -6505.30, -173549.84, -163458.59, -166435.52, -170975.22, 38933.45, -118688.36, -137895.19, -102270.05, -152594.58, -141389.59, -157788.73, -146720.20, 0.13, -0.10, 0.99
77, -6352.30, 5231.85, -6472.15, -6505.07, -173549.05, -163456.67, -166433.39, -170974.20, 38933.45, -118688.36, -137895.19, -102270.05, -152594.58, -141389.59, -157788.73, -146720.20, 0.00, 0.00, 0.00
78, -6352.30, 5231.85, -6472.15, -6505.07, -173549.05, -163456.67, -166433.39, -170974.20, 38931.75, -118685.37, -137894.33, -102264.44, -152596.19, -141394.14, -157794.28, -146725.56, 0.00, 0.00, 0.00
79, -6355.11, 5235.07, -6474.90, -6507.82, -173551.36, -163457.88, -166434.53, -170976.78, 38931.75, -118685.37, -137894.33, -102264.44, -152596.19, -141394.14, -157794.28, -146725.56, 0.00, 0.00, 0.00
80, -6355.11, 5235.07, -6474.90, -6507.82, -173551.36, -163457.88, -166434.53, -170976.78, 38911.43, -118674.26, -137885.69, -102250.71, -152589.55, -141389.91, -157790.80, -146721.34, 0.00, 0.00, 0.00
81, -6350.76, 5230.51, -6470.56, -6503.53, -173546.36, -163451.94, -166428.16, -170971.53, 38911.43, -118674.26, -137885.69, -102250.71, -152589.55, -141389.91, -157790.80, -146721.34, 0.00, 0.00, 0.00
82, -6350.76, 5230.51, -6470.56, -6503.53, -173546.36, -163451.94, -166428.16, -170971.53, 38905.67, -118668.38, -137881.84, -102242.17, -152588.22, -141391.36, -157793.31, -146723.59, 0.00, 0.00, 0.00
83, -6355.32, 5235.49, -6475.01, -6508.07, -173550.34, -163454.92, -166431.11, -170975.80, 38905.67, -118668.38, -137881.84, -102242.17, -152588.22, -141391.36, -157793.31, -146723.59, 0.00, 0.00, 0.00
84, -6355.32, 5235.49, -6475.01, -6508.07, -173550.34, -163454.92, -166431.11, -170975.80, 38890.36, -118661.05, -137876.75, -102232.23, -152585.41, -141391.03, -157793.70, -146723.34, 0.00, 0.00, 0.00
85, -6352.30, 5231.94, -6472.01, -6504.87, -173546.66, -163450.17, -166425.98, -170971.81, 38890.36, -118661.05, -137876.75, -102232.23, -152585.41, -141391.03, -157793.70, -146723.34, 0.00, 0.00, 0.00
86, -6352.30, 5231.94, -6472.01, -6504.87, -173546.66, -163450.17, -166425.98, -170971.81, 38880.25, -118652.24, -137870.20, -102220.73, -152581.08, -141389.67, -157793.23, -146722.52, 0.13, -0.10, 0.99
87, -6353.28, 5233.59, -6473.09, -6505.90, -173547.19, -163449.66, -166425.56, -170972.75, 38880.25, -118652.24, -137870.20, -102220.73, -152581.08, -141389.67, -157793.23, -146722.52, 0.00, 0.00, 0.00
88, -6353.28, 5233.59, -6473.09, -6505.90, -173547.19, -163449.66, -166425.56, -170972.75, 38865.50, -118643.73, -137863.92, -102209.67, -152577.06, -141388.17, -157792.61, -146721.36, 0.00, 0.00, 0.00
89, -6349.73, 5229.79, -6469.58, -6502.46, -173543.13, -163444.42, -166420.11, -170968.28, 38865.50, -118643.73, -137863.92, -102209.67, -152577.06, -141388.17, -157792.61, -146721.36, 0.00, 0.00, 0.00
90, -6349.73, 5229.79, -6469.58, -6502.46, -173543.13, -163444.42, -166420.11, -170968.28, 38853.63, -118634.72, -137857.17, -102198.03, -152572.64, -141386.47, -157791.69, -146720.16, 0.00, 0.00, 0.00
91, -6352.08, 5232.72, -6471.97, -6504.76, -173545.02, -163445.36, -166420.94, -170970.52, 38853.63, -118634.72, -137857.17, -102198.03, -152572.64, -141386.47, -157791.69, -146720.16, 0.00, 0.00, 0.00
92, -6352.08, 5232.72, -6471.97, -6504.76, -173545.02, -163445.36, -166420.94, -170970.52, 38843.42, -118629.22, -137853.91, -102189.84, -152571.64, -141388.06, -157794.19, -146722.03, 0.00, 0.00, 0.00
93, -6352.01, 5232.32, -6471.95, -6504.89, -173544.41, -163443.64, -166419.06, -170969.58, 38843.42, -118629.22, -137853.91, -102189.84, -152571.64, -141388.06, -157794.19, -146722.03, 0.00, 0.00, 0.00
94, -6352.01, 5232.32, -6471.95, -6504.89, -173544.41, -163443.64, -166419.06, -170969.58, 38829.63, -118620.32, -137847.20, -102178.20, -152567.34, -141386.27, -157793.30, -146720.63, 0.00, 0.00, 0.00
95, -6349.55, 5230.33, -6469.51, -6502.37, -173541.38, -163439.66, -166414.92, -170967.02, 38829.63, -118620.32, -137847.20, -102178.20, -152567.34, -141386.27, -157793.30, -146720.63, 0.00, 0.00, 0.00
96, -6349.55, 5230.33, -6469.51, -6502.37, -173541.38, -163439.66, -166414.92, -170967.02, 38817.98, -118611.31, -137840.52, -102166.71, -152563.02, -141384.77, -157792.64, -146719.61, 0.13, -0.10, 0.99
97, -6350.80, 5231.49, -6470.96, -6503.78, -173542.31, -163439.45, -166414.44, -170967.38, 38817.98, -118611.31, -137840.52, -102166.71, -152563.02, -141384.77, -157792.64, -146719.61, 0.00, 0.00, 0.00
98, -6350.80, 5231.49, -6470.96, -6503.78, -173542.31, -163439.45, -166414.44, -170967.38, 38805.46, -118605.23, -137836.66, -102157.91, -152561.27, -141385.64, -157794.39, -146720.75, 0.00, 0.00, 0.00
99, -6352.23, 5233.28, -6472.17, -6504.96, -173543.08, -163439.19, -166414.05, -170968.53, 38805.46, -118605.23, -137836.66, -102157.91, -152561.27, -141385.64, -157794.39, -146720.75, 0.00, 0.00, 0.00
100, -6352.23, 5233.28, -6472.17, -6504.96, -173543.08, -163439.19, -166414.05, -170968.53, 38798.22, -118599.16, -137832.81, -102149.13, -152559.86, -141386.95, -157796.58, -146722.80, 0.00, 0.00, 0.00
101, -6351.65, 5232.39, -6471.68, -6504.58, -173542.02, -163437.06, -166411.70, -170967.19, 38798.22, -118599.16, -137832.81, -102149.13, -152559.86, -141386.95, -157796.58, -146722.80, 0.00, 0.00, 0.00
102, -6351.65, 5232.39, -6471.68, -6504.58, -173542.02, -163437.06, -166411.70, -170967.19, 38781.30, -118590.41, -137826.27, -102137.61, -152555.48, -141385.03, -157795.44, -146720.98, 0.00, 0.00, 0.00
103, -6352.43, 5233.48, -6472.44, -6505.23, -173542.14, -163436.17, -166410.78, -170967.66, 38781.30, -118590.41, -137826.27, -102137.61, -152555.48, -141385.03, -157795.44, -146720.98, 0.00, 0.00, 0.00
104, -6352.43, 5233.48, -6472.44, -6505.23, -173542.14, -163436.17, -166410.78, -170967.66, 38773.64, -118582.30, -137820.36, -102126.99, -152552.03, -141384.53, -157795.89, -146721.20, 0.00, 0.00, 0.00
105, -6348.39, 5229.62, -6468.64, -6501.43, -173537.84, -163430.67, -166405.14, -170962.97, 38773.64, -118582.30, -137820.36, -102126.99, -152552.03, -141384.53, -157795.89, -146721.20, 0.12, -0.10, 0.98
106, -6348.39, 5229.62, -6468.64, -6501.43, -173537.84, -163430.67, -166405.14, -170962.97, 38754.73, -118572.71, -137813.08, -102114.63, -152546.89, -141381.69, -157793.83, -146718.39, 0.00, 0.00, 0.00
107, -6351.96, 5233.33, -6472.10, -6504.83, -173540.80, -163432.58, -166406.88, -170966.16, 38754.73, -118572.71, -137813.08, -102114.63, -152546.89, -141381.69, -157793.83, -146718.39, 0.00, 0.00, 0.00
108, -6351.96, 5233.33, -6472.10, -6504.83, -173540.80, -163432.58, -166406.88, -170966.16, 38752.34, -118569.05, -137811.47, -102108.33, -152547.88, -141385.53, -157798.70, -146723.13, 0.00, 0.00, 0.00
109, -6352.57, 5233.82, -6472.91, -6505.56, -173540.92, -163431.66, -166405.73, -170966.00, 38752.34, -118569.05, -137811.47, -102108.33, -152547.88, -141385.53, -157798.70, -146723.13, 0.00, 0.00, 0.00
110, -6352.57, 5233.82, -6472.91, -6505.56, -173540.92, -163431.66, -166405.73, -170966.00, 38733.11, -118560.17, -137805.03, -102096.88, -152543.44, -141383.45, -157797.36, -146720.95, 0.00, 0.00, 0.00
111, -6352.86, 5234.13, -6473.02, -6505.68, -173540.50, -163430.14, -166404.16, -170965.81, 38733.11, -118560.17, -137805.03, -102096.88, -152543.44, -141383.45, -157797.36, -146720.95, 0.00, 0.00, 0.00
112, -6352.86, 5234.13, -6473.02, -6505.68, -173540.50, -163430.14, -166404.16, -170965.81, 38729.13, -118553.73, -137800.69, -102087.72, -152541.63, -141384.72, -157799.59, -146723.02, 0.00, 0.00, 0.00
113, -6350.44, 5232.03, -6470.74, -6503.44, -173537.59, -163426.31, -166400.19, -170962.88, 38729.13, -118553.73, -137800.69, -102087.72, -152541.63, -141384.72, -157799.59, -146723.02, 0.00, 0.00, 0.00
114, -6350.44, 5232.03, -6470.74, -6503.44, -173537.59, -163426.31, -166400.19, -170962.88, 38707.30, -118542.72, -137792.02, -102074.05, -152535.09, -141380.55, -157796.09, -146718.66, 0.00, 0.00, 0.00
115, -6352.95, 5234.38, -6472.93, -6505.79, -173539.30, -163426.94, -166400.64, -170964.63, 38707.30, -118542.72, -137792.02, -102074.05, -152535.09, -141380.55, -157796.09, -146718.66, 0.13, -0.09, 0.99
116, -6352.95, 5234.38, -6472.93, -6505.79, -173539.30, -163426.94, -166400.64, -170964.63, 38706.89, -118539.81, -137791.19, -102068.57, -152536.70, -141385.31, -157801.80, -146724.36, 0.00, 0.00, 0.00
117, -6352.10, 5233.71, -6472.26, -6505.10, -173538.22, -163424.70, -166398.22, -170963.48, 38706.89, -118539.81, -137791.19, -102068.57, -152536.70, -141385.31, -157801.80, -146724.36, 0.00, 0.00, 0.00
118, -6352.10, 5233.71, -6472.26, -6505.10, -173538.22, -163424.70, -166398.22, -170963.48, 38683.96, -118527.92, -137781.63, -102053.84, -152529.28, -141380.03, -157797.28, -146719.02, 0.00, 0.00, 0.00
119, -6350.91, 5232.25, -6470.99, -6503.66, -173536.28, -163421.72, -166395.08, -170961.52, 38683.96, -118527.92, -137781.63, -102053.84, -152529.28, -141380.03, -157797.28, -146719.02, 0.00, 0.00, 0.00
120, -6350.91, 5232.25, -6470.99, -6503.66, -173536.28, -163421.72, -166395.08, -170961.52, 38681.01, -118522.42, -137778.19, -102045.68, -152528.36, -141382.22, -157800.41, -146722.02, 0.00, 0.00, 0.00
121, -6350.62, 5232.59, -6470.90, -6503.58, -173535.63, -163419.98, -166393.28, -170961.00, 38681.01, -118522.42, -137778.19, -102045.68, -152528.36, -141382.22, -157800.41, -146722.02, 0.00, 0.00, 0.00
122, -6350.62, 5232.59, -6470.90, -6503.58, -173535.63, -163419.98, -166393.28, -170961.00, 38659.78, -118511.72, -137769.89, -102032.36, -152522.11, -141378.28, -157797.30, -146718.05, 0.00, 0.00, 0.00
123, -6352.23, 5233.93, -6472.42, -6505.05, -173536.50, -163419.81, -166392.91, -170961.83, 38659.78, -118511.72, -137769.89, -102032.36, -152522.11, -141378.28, -157797.30, -146718.05, 0.00, 0.00, 0.00
124, -6352.23, 5233.93, -6472.42, -6505.05, -173536.50, -163419.81, -166392.91, -170961.83, 38658.32, -118508.38, -137768.73, -102026.44, -152523.50, -141382.47, -157802.50, -146723.23, 0.00, 0.00, 0.00
125, -6350.69, 5232.79, -6471.01, -6503.64, -173534.59, -163416.91, -166389.84, -170960.03, 38658.32, -118508.38, -137768.73, -102026.44, -152523.50, -141382.47, -157802.50, -146723.23, 0.13, -0.10, 0.99
126, -6350.69, 5232.79, -6471.01, -6503.64, -173534.59, -163416.91, -166389.84, -170960.03, 38635.79, -118495.73, -137758.41, -102011.13, -152515.36, -141376.64, -157797.44, -146717.47, 0.00, 0.00, 0.00
127, -6349.77, 5231.47, -6470.07, -6502.73, -173532.97, -163414.20, -166386.94, -170958.23, 38635.79, -118495.73, -137758.41, -102011.13, -152515.36, -141376.64, -157797.44, -146717.47, 0.00, 0.00, 0.00
128, -6349.77, 5231.47, -6470.07, -6502.73, -173532.97, -163414.20, -166386.94, -170958.23, 38631.57, -118490.44, -137755.23, -102003.12, -152514.53, -141378.80, -157800.66, -146720.44, 0.00, 0.00, 0.00
129, -6350.26, 5232.54, -6470.61, -6503.20, -173532.95, -163413.13, -166385.78, -170958.58, 38631.57, -118490.44, -137755.23, -102003.12, -152514.53, -141378.80, -157800.66, -146720.44, 0.00, 0.00, 0.00
130, -6350.26, 5232.54, -6470.61, -6503.20, -173532.95, -163413.13, -166385.78, -170958.58, 38614.27, -118482.01, -137749.02, -101992.02, -152510.59, -141377.27, -157799.83, -146718.83, 0.00, 0.00, 0.00
131, -6349.79, 5231.67, -6470.11, -6502.61, -173531.81, -163410.92, -166383.30, -170956.97, 38614.27, -118482.01, -137749.02, -101992.02, -152510.59, -141377.27, -157799.83, -146718.83, 0.00, 0.00, 0.00
132, -6349.79, 5231.67, -6470.11, -6502.61, -173531.81, -163410.92, -166383.30, -170956.97, 38605.42, -118473.45, -137742.75, -101980.97, -152506.70, -141376.14, -157799.72, -146718.45, 0.00, 0.00, 0.00
133, -6348.34, 5230.69, -6468.68, -6501.18, -173529.86, -163407.97, -166380.36, -170955.41, 38605.42, -118473.45, -137742.75, -101980.97, -152506.70, -141376.14, -157799.72, -146718.45, 0.00, 0.00, 0.00
134, -6348.34, 5230.69, -6468.68, -6501.18, -173529.86, -163407.97, -166380.36, -170955.41, 38588.86, -118464.30, -137735.84, -101969.08, -152502.02, -141374.00, -157798.22, -146716.53, 0.00, 0.00, 0.00
135, -6350.29, 5232.27, -6470.67, -6503.17, -173531.22, -163408.14, -166380.30, -170956.47, 38588.86, -118464.30, -137735.84, -101969.08, -152502.02, -141374.00, -157798.22, -146716.53, 0.13, -0.09, 0.99
136, -6350.29, 5232.27, -6470.67, -6503.17, -173531.22, -163408.14, -166380.30, -170956.47, 38585.82, -118463.15, -137736.89, -101965.19, -152505.44, -141380.19, -157805.39, -146723.22, 0.00, 0.00, 0.00
137, -6354.60, 5237.17, -6474.94, -6507.40, -173534.94, -163410.92, -166383.08, -170960.55, 38585.82, -118463.15, -137736.89, -101965.19, -152505.44, -141380.19, -157805.39, -146723.22, 0.00, 0.00, 0.00
138, -6354.60, 5237.17, -6474.94, -6507.40, -173534.94, -163410.92, -166383.08, -170960.55, 38571.44, -118454.30, -137730.23, -101953.79, -152501.14, -141378.42, -157804.42, -146721.83, 0.00, 0.00, 0.00
139, -6352.14, 5234.33, -6472.46, -6505.01, -173531.86, -163406.69, -166378.56, -170956.95, 38571.44, -118454.30, -137730.23, -101953.79, -152501.14, -141378.42, -157804.42, -146721.83, 0.00, 0.00, 0.00
140, -6352.14, 5234.33, -6472.46, -6505.01, -173531.86, -163406.69, -166378.56, -170956.95, 38558.73, -118445.17, -137723.36, -101941.85, -152496.53, -141376.52, -157803.41, -146720.36, 0.00, 0.00, 0.00
141, -6350.82, 5233.17, -6470.99, -6503.46, -173529.89, -163403.83, -166375.47, -170955.45, 38558.73, -118445.17, -137723.36, -101941.85, -152496.53, -141376.52, -157803.41, -146720.36, 0.00, 0.00, 0.00
142, -6350.82, 5233.17, -6470.99, -6503.46, -173529.89, -163403.83, -166375.47, -170955.45, 38545.25, -118435.72, -137716.14, -101929.70, -152491.53, -141374.23, -157801.97, -146718.50, 0.00, 0.00, 0.00
143, -6349.39, 5231.34, -6469.56, -6502.14, -173527.97, -163400.70, -166372.23, -170953.13, 38545.25, -118435.72, -137716.14, -101929.70, -152491.53, -141374.23, -157801.97, -146718.50, 0.00, 0.00, 0.00
144, -6349.39, 5231.34, -6469.56, -6502.14, -173527.97, -163400.70, -166372.23, -170953.13, 38532.48, -118428.28, -137710.95, -101919.57, -152488.53, -141373.80, -157802.38, -146718.45, 0.00, 0.00, 0.00
145, -6351.05, 5233.64, -6471.19, -6503.71, -173529.03, -163400.75, -166372.14, -170954.52, 38532.48, -118428.28, -137710.95, -101919.57, -152488.53, -141373.80, -157802.38, -146718.45, 0.13, -0.10, 0.99
146, -6351.05, 5233.64, -6471.19, -6503.71, -173529.03, -163400.75, -166372.14, -170954.52, 38522.94, -118420.81, -137705.72, -101909.55, -152485.70, -141373.81, -157803.33, -146718.86, 0.00, 0.00, 0.00
147, -6349.06, 5231.36, -6469.27, -6501.81, -173526.42, -163397.03, -166368.19, -170951.52, 38522.94, -118420.81, -137705.72, -101909.55, -152485.70, -141373.81, -157803.33, -146718.86, 0.00, 0.00, 0.00
148, -6349.06, 5231.36, -6469.27, -6501.81, -173526.42, -163397.03, -166368.19, -170951.52, 38507.88, -118412.81, -137699.97, -101898.78, -152482.19, -141372.81, -157803.02, -146718.00, 0.00, 0.00, 0.00
149, -6350.80, 5233.21, -6470.92, -6503.35, -173527.50, -163397.08, -166368.19, -170952.95, 38507.88, -118412.81, -137699.97, -101898.78, -152482.19, -141372.81, -157803.02, -146718.00, 0.00, 0.00, 0.00
150, -6350.80, 5233.21, -6470.92, -6503.35, -173527.50, -163397.08, -166368.19, -170952.95, 38499.16, -118404.63, -137694.00, -101887.95, -152478.61, -141372.13, -157803.28, -146718.05, 0.00, 0.00, 0.00
151, -6347.63, 5229.93, -6467.90, -6500.36, -173523.83, -163392.30, -166363.27, -170949.06, 38499.16, -118404.63, -137694.00, -101887.95, -152478.61, -141372.13, -157803.28, -146718.05, 0.00, 0.00, 0.00
152, -6347.63, 5229.93, -6467.90, -6500.36, -173523.83, -163392.30, -166363.27, -170949.06, 38481.97, -118395.82, -137687.61, -101876.45, -152474.44, -141370.20, -157802.22, -146716.27, 0.00, 0.00, 0.00
153, -6350.20, 5232.68, -6470.14, -6502.52, -173525.61, -163393.14, -166363.92, -170951.09, 38481.97, -118395.82, -137687.61, -101876.45, -152474.44, -141370.20, -157802.22, -146716.27, 0.00, 0.00, 0.00
154, -6350.20, 5232.68, -6470.14, -6502.52, -173525.61, -163393.14, -166363.92, -170951.09, 38475.96, -118388.91, -137682.81, -101866.98, -152472.05, -141370.73, -157803.83, -146717.73, 0.00, 0.00, 0.00
155, -6346.29, 5228.74, -6466.31, -6498.75, -173521.19, -163387.63, -166358.33, -170946.61, 38475.96, -118388.91, -137682.81, -101866.98, -152472.05, -141370.73, -157803.83, -146717.73, 0.13, -0.09, 0.99
156, -6346.29, 5228.74, -6466.31, -6498.75, -173521.19, -163387.63, -166358.33, -170946.61, 38454.77, -118377.52, -137673.73, -101852.85, -152465.02, -141366.31, -157799.94, -146713.02, 0.00, 0.00, 0.00
157, -6347.76, 5230.29, -6467.72, -6500.09, -173522.05, -163387.56, -166357.92, -170947.59, 38454.77, -118377.52, -137673.73, -101852.85, -152465.02, -141366.31, -157799.94, -146713.02, 0.00, 0.00, 0.00
158, -6347.76, 5230.29, -6467.72, -6500.09, -173522.05, -163387.56, -166357.92, -170947.59, 38452.20, -118373.23, -137671.47, -101845.79, -152465.31, -141369.55, -157804.14, -146717.20, 0.00, 0.00, 0.00
159, -6346.89, 5229.53, -6467.12, -6499.42, -173520.81, -163385.19, -166355.42, -170946.14, 38452.20, -118373.23, -137671.47, -101845.79, -152465.31, -141369.55, -157804.14, -146717.20, 0.00, 0.00, 0.00
160, -6346.89, 5229.53, -6467.12, -6499.42, -173520.81, -163385.19, -166355.42, -170946.14, 38431.97, -118363.41, -137664.05, -101833.36, -152459.98, -141366.53, -157801.81, -146714.16, 0.00, 0.00, 0.00
161, -6348.36, 5231.29, -6468.53, -6500.80, -173521.61, -163384.97, -166355.11, -170947.08, 38431.97, -118363.41, -137664.05, -101833.36, -152459.98, -141366.53, -157801.81, -146714.16, 0.00, 0.00, 0.00
162, -6348.36, 5231.29, -6468.53, -6500.80, -173521.61, -163384.97, -166355.11, -170947.08, 38429.11, -118357.96, -137660.70, -101825.23, -152459.23, -141368.67, -157805.17, -146717.16, 0.00, 0.00, 0.00
163, -6346.87, 5230.00, -6467.12, -6499.37, -173519.67, -163381.91, -166351.95, -170945.11, 38429.11, -118357.96, -137660.70, -101825.23, -152459.23, -141368.67, -157805.17, -146717.16, 0.00, 0.00, 0.00
164, -6346.87, 5230.00, -6467.12, -6499.37, -173519.67, -163381.91, -166351.95, -170945.11, 38407.71, -118347.68, -137652.70, -101812.13, -152453.33, -141365.09, -157802.17, -146713.52, 0.00, 0.00, 0.00
165, -6348.34, 5231.11, -6468.48, -6500.69, -173520.52, -163381.70, -166351.41, -170945.88, 38407.71, -118347.68, -137652.70, -101812.13, -152453.33, -141365.09, -157802.17, -146713.52, 0.13, -0.09, 0.99
166, -6348.34, 5231.11, -6468.48, -6500.69, -173520.52, -163381.70, -166351.41, -170945.88, 38406.42, -118343.77, -137651.02, -101805.60, -152454.19, -141368.91, -157807.00, -146718.17, 0.00, 0.00, 0.00
167, -6348.48, 5231.56, -6468.75, -6500.94, -173520.23, -163380.31, -166350.11, -170945.78, 38406.42, -118343.77, -137651.02, -101805.60, -152454.19, -141368.91, -157807.00, -146718.17, 0.00, 0.00, 0.00
168, -6348.48, 5231.56, -6468.75, -6500.94, -173520.23, -163380.31, -166350.11, -170945.78, 38384.92, -118332.88, -137642.44, -101792.10, -152447.75, -141364.75, -157803.67, -146713.89, 0.00, 0.00, 0.00
169, -6347.00, 5230.13, -6467.14, -6499.48, -173518.03, -163377.08, -166346.64, -170943.47, 38384.92, -118332.88, -137642.44, -101792.10, -152447.75, -141364.75, -157803.67, -146713.89, 0.00, 0.00, 0.00
170, -6347.00, 5230.13, -6467.14, -6499.48, -173518.03, -163377.08, -166346.64, -170943.47, 38381.12, -118326.71, -137638.39, -101783.20, -152446.16, -141366.20, -157806.11, -146716.27, 0.00, 0.00, 0.00
171, -6347.02, 5230.60, -6467.37, -6499.64, -173517.70, -163375.63, -166345.14, -170943.23, 38381.12, -118326.71, -137638.39, -101783.20, -152446.16, -141366.20, -157806.11, -146716.27, 0.00, 0.00, 0.00
172, -6347.02, 5230.60, -6467.37, -6499.64, -173517.70, -163375.63, -166345.14, -170943.23, 38360.96, -118316.90, -137630.95, -101770.71, -152440.81, -141363.22, -157803.83, -146713.17, 0.00, 0.00, 0.00
173, -6346.38, 5229.55, -6466.67, -6499.02, -173516.42, -163373.28, -166342.61, -170941.69, 38360.96, -118316.90, -137630.95, -101770.71, -152440.81, -141363.22, -157803.83, -146713.17, 0.00, 0.00, 0.00
174, -6346.38, 5229.55, -6466.67, -6499.02, -173516.42, -163373.28, -166342.61, -170941.69, 38355.84, -118310.26, -137626.44, -101761.39, -152438.75, -141364.20, -157805.70, -146714.98, 0.00, 0.00, 0.00
175, -6346.46, 5230.00, -6466.83, -6499.06, -173515.95, -163371.89, -166341.03, -170941.48, 38355.84, -118310.26, -137626.44, -101761.39, -152438.75, -141364.20, -157805.70, -146714.98, 0.13, -0.09, 0.99
176, -6346.46, 5230.00, -6466.83, -6499.06, -173515.95, -163371.89, -166341.03, -170941.48, 38337.64, -118301.41, -137619.89, -101749.85, -152434.38, -141362.27, -157804.45, -146712.95, 0.00, 0.00, 0.00
177, -6346.29, 5229.68, -6466.61, -6499.02, -173515.25, -163369.98, -166338.84, -170940.45, 38337.64, -118301.41, -137619.89, -101749.85, -152434.38, -141362.27, -157804.45, -146712.95, 0.00, 0.00, 0.00
178, -6346.29, 5229.68, -6466.61, -6499.02, -173515.25, -163369.98, -166338.84, -170940.45, 38331.27, -118294.37, -137614.98, -101740.13, -152431.94, -141362.58, -157805.86, -146714.14, 0.00, 0.00, 0.00
179, -6344.10, 5228.03, -6464.42, -6496.78, -173512.63, -163366.30, -166335.08, -170938.09, 38331.27, -118294.37, -137614.98, -101740.13, -152431.94, -141362.58, -157805.86, -146714.14, 0.00, 0.00, 0.00
180, -6344.10, 5228.03, -6464.42, -6496.78, -173512.63, -163366.30, -166335.08, -170938.09, 38311.47, -118282.70, -137605.69, -101725.84, -152424.81, -141357.92, -157801.92, -146709.56, 0.00, 0.00, 0.00
181, -6342.87, 5226.24, -6463.19, -6495.51, -173510.66, -163363.34, -166331.80, -170935.89, 38311.47, -118282.70, -137605.69, -101725.84, -152424.81, -141357.92, -157801.92, -146709.56, 0.00, 0.00, 0.00
182, -6342.87, 5226.24, -6463.19, -6495.51, -173510.66, -163363.34, -166331.80, -170935.89, 38305.01, -118277.18, -137602.41, -101717.71, -152423.84, -141359.72, -157804.81, -146712.11, 0.00, 0.00, 0.00
183, -6345.10, 5228.92, -6465.26, -6497.50, -173512.27, -163363.91, -166332.53, -170937.80, 38305.01, -118277.18, -137602.41, -101717.71, -152423.84, -141359.72, -157804.81, -146712.11, 0.00, 0.00, 0.00
184, -6345.10, 5228.92, -6465.26, -6497.50, -173512.27, -163363.91, -166332.53, -170937.80, 38290.06, -118268.91, -137596.38, -101706.78, -152420.03, -141358.58, -157804.20, -146711.08, 0.13, -0.09, 0.99
185, -6342.87, 5226.42, -6462.96, -6495.33, -173509.41, -163359.94, -166328.13, -170934.48, 38290.06, -118268.91, -137596.38, -101706.78, -152420.03, -141358.58, -157804.20, -146711.08, 0.00, 0.00, 0.00
186, -6342.87, 5226.42, -6462.96, -6495.33, -173509.41, -163359.94, -166328.13, -170934.48, 38279.04, -118260.26, -137589.91, -101695.52, -152415.95, -141357.14, -157803.83, -146710.28, 0.00, 0.00, 0.00
187, -6343.89, 5227.94, -6463.97, -6496.15, -173509.83, -163359.28, -166327.59, -170935.36, 38279.04, -118260.26, -137589.91, -101695.52, -152415.95, -141357.14, -157803.83, -146710.28, 0.00, 0.00, 0.00
188, -6343.89, 5227.94, -6463.97, -6496.15, -173509.83, -163359.28, -166327.59, -170935.36, 38267.08, -118253.33, -137585.28, -101685.84, -152413.52, -141357.30, -157804.97, -146710.86, 0.00, 0.00, 0.00
189, -6343.40, 5226.87, -6463.50, -6495.73, -173508.72, -163357.09, -166325.06, -170933.89, 38267.08, -118253.33, -137585.28, -101685.84, -152413.52, -141357.30, -157804.97, -146710.86, 0.00, 0.00, 0.00
190, -6343.40, 5226.87, -6463.50, -6495.73, -173508.72, -163357.09, -166325.06, -170933.89, 38255.99, -118246.45, -137580.56, -101676.20, -152411.17, -141357.77, -157806.08, -146711.50, 0.00, 0.00, 0.00
191, -6345.91, 5229.84, -6465.85, -6498.14, -173510.64, -163357.86, -166325.88, -170936.17, 38255.99, -118246.45, -137580.56, -101676.20, -152411.17, -141357.77, -157806.08, -146711.50, 0.00, 0.00, 0.00
192, -6345.91, 5229.84, -6465.85, -6498.14, -173510.64, -163357.86, -166325.88, -170936.17, 38245.58, -118239.18, -137575.56, -101666.21, -152408.41, -141357.70, -157806.97, -146712.00, 0.00, 0.00, 0.00
193, -6345.79, 5229.64, -6465.93, -6498.12, -173510.08, -163356.33, -166323.97, -170935.20, 38245.58, -118239.18, -137575.56, -101666.21, -152408.41, -141357.70, -157806.97, -146712.00, 0.00, 0.00, 0.00
194, -6345.79, 5229.64, -6465.93, -6498.12, -173510.08, -163356.33, -166323.97, -170935.20, 38234.54, -118233.98, -137572.59, -101658.32, -152407.83, -141359.63, -157809.59, -146714.13, 0.13, -0.09, 0.98
195, -6347.83, 5232.12, -6468.01, -6500.16, -173511.38, -163356.69, -166324.22, -170936.92, 38234.54, -118233.98, -137572.59, -101658.32, -152407.83, -141359.63, -157809.59, -146714.13, 0.00, 0.00, 0.00
196, -6347.83, 5232.12, -6468.01, -6500.16, -173511.38, -163356.69, -166324.22, -170936.92, 38225.73, -118226.73, -137567.58, -101648.48, -152405.13, -141359.63, -157810.69, -146714.95, 0.00, 0.00, 0.00
197, -6347.27, 5231.07, -6467.43, -6499.53, -173510.38, -163354.45, -166321.81, -170935.56, 38225.73, -118226.73, -137567.58, -101648.48, -152405.13, -141359.63, -157810.69, -146714.95, 0.00, 0.00, 0.00
198, -6347.27, 5231.07, -6467.43, -6499.53, -173510.38, -163354.45, -166321.81, -170935.56, 38208.65, -118217.32, -137560.44, -101636.27, -152400.11, -141357.25, -157808.92, -146712.47, 0.00, 0.00, 0.00
199, -6345.88, 5230.04, -6466.05, -6498.05, -173508.34, -163351.50, -166318.77, -170933.91, 38208.65, -118217.32, -137560.44, -101636.27, -152400.11, -141357.25, -157808.92, -146712.47, 0.00, 0.00, 0.00
200, -6345.88, 5230.04, -6466.05, -6498.05, -173508.34, -163351.50, -166318.77, -170933.91, 38201.12, -118209.66, -137555.05, -101626.00, -152397.08, -141357.09, -157809.80, -146713.17, 0.00, 0.00, 0.00
201, -6345.06, 5229.28, -6465.29, -6497.54, -173507.09, -163349.22, -166316.28, -170932.44, 38201.12, -118209.66, -137555.05, -101626.00, -152397.08, -141357.09, -157809.80, -146713.17, 0.00, 0.00, 0.00
202, -6345.06, 5229.28, -6465.29, -6497.54, -173507.09, -163349.22, -166316.28, -170932.44, 38183.77, -118201.07, -137548.72, -101614.76, -152393.00, -141355.31, -157808.89, -146711.45, 0.00, 0.00, 0.00
203, -6347.31, 5231.78, -6467.52, -6499.75, -173508.81, -163349.94, -166316.75, -170934.33, 38183.77, -118201.07, -137548.72, -101614.76, -152393.00, -141355.31, -157808.89, -146711.45, 0.00, 0.00, 0.00
204, -6347.31, 5231.78, -6467.52, -6499.75, -173508.81, -163349.94, -166316.75, -170934.33, 38180.22, -118196.34, -137546.19, -101607.27, -152392.88, -141358.16, -157812.72, -146715.06, 0.13, -0.09, 0.99
205, -6346.76, 5231.05, -6467.21, -6499.22, -173507.75, -163347.73, -166314.42, -170933.13, 38180.22, -118196.34, -137546.19, -101607.27, -152392.88, -141358.16, -157812.72, -146715.06, 0.00, 0.00, 0.00
206, -6346.76, 5231.05, -6467.21, -6499.22, -173507.75, -163347.73, -166314.42, -170933.13, 38162.41, -118188.63, -137540.84, -101596.79, -152389.55, -141357.19, -157812.45, -146714.09, 0.00, 0.00, 0.00
207, -6350.13, 5234.58, -6470.52, -6502.66, -173510.58, -163349.45, -166316.08, -170936.08, 38162.41, -118188.63, -137540.84, -101596.79, -152389.55, -141357.19, -157812.45, -146714.09, 0.00, 0.00, 0.00
208, -6350.13, 5234.58, -6470.52, -6502.66, -173510.58, -163349.45, -166316.08, -170936.08, 38159.57, -118183.50, -137537.78, -101588.98, -152389.16, -141359.77, -157816.05, -146717.53, 0.00, 0.00, 0.00
209, -6348.34, 5233.01, -6468.80, -6500.98, -173508.22, -163346.16, -166312.63, -170933.69, 38159.57, -118183.50, -137537.78, -101588.98, -152389.16, -141359.77, -157816.05, -146717.53, 0.00, 0.00, 0.00
210, -6348.34, 5233.01, -6468.80, -6500.98, -173508.22, -163346.16, -166312.63, -170933.69, 38137.44, -118171.95, -137528.63, -101574.70, -152381.98, -141355.00, -157811.98, -146712.58, 0.00, 0.00, 0.00
211, -6348.52, 5233.21, -6468.89, -6501.09, -173507.69, -163344.64, -166310.86, -170933.17, 38137.44, -118171.95, -137528.63, -101574.70, -152381.98, -141355.00, -157811.98, -146712.58, 0.00, 0.00, 0.00
212, -6348.52, 5233.21, -6468.89, -6501.09, -173507.69, -163344.64, -166310.86, -170933.17, 38136.79, -118168.77, -137527.55, -101568.83, -152383.45, -141359.44, -157817.42, -146718.03, 0.00, 0.00, 0.00
213, -6349.28, 5234.02, -6469.73, -6502.03, -173508.06, -163343.95, -166309.98, -170933.55, 38136.79, -118168.77, -137527.55, -101568.83, -152383.45, -141359.44, -157817.42, -146718.03, 0.00, 0.00, 0.00
214, -6349.28, 5234.02, -6469.73, -6502.03, -173508.06, -163343.95, -166309.98, -170933.55, 38114.37, -118157.33, -137518.50, -101554.72, -152376.47, -141354.78, -157813.39, -146713.16, 0.13, -0.09, 0.98
215, -6348.32, 5232.88, -6468.64, -6501.03, -173506.45, -163341.20, -166307.02, -170931.78, 38114.37, -118157.33, -137518.50, -101554.72, -152376.47, -141354.78, -157813.39, -146713.16, 0.00, 0.00, 0.00
216, -6348.32, 5232.88, -6468.64, -6501.03, -173506.45, -163341.20, -166307.02, -170931.78, 38111.31, -118151.63, -137514.95, -101546.36, -152375.38, -141356.73, -157816.47, -146716.08, 0.00, 0.00, 0.00
217, -6347.83, 5232.79, -6468.35, -6500.58, -173505.48, -163339.25, -166304.91, -170930.91, 38111.31, -118151.63, -137514.95, -101546.36, -152375.38, -141356.73, -157816.47, -146716.08, 0.00, 0.00, 0.00
218, -6347.83, 5232.79, -6468.35, -6500.58, -173505.48, -163339.25, -166304.91, -170930.91, 38090.10, -118140.79, -137506.39, -101532.80, -152369.11, -141352.83, -157813.17, -146712.00, 0.00, 0.00, 0.00
219, -6347.54, 5232.21, -6467.90, -6500.20, -173504.47, -163337.13, -166302.67, -170929.81, 38090.10, -118140.79, -137506.39, -101532.80, -152369.11, -141352.83, -157813.17, -146712.00, 0.00, 0.00, 0.00
220, -6347.54, 5232.21, -6467.90, -6500.20, -173504.47, -163337.13, -166302.67, -170929.81, 38087.26, -118135.83, -137503.64, -101525.17, -152368.81, -141355.52, -157816.86, -146715.58, 0.00, 0.00, 0.00
221, -6347.60, 5232.41, -6468.08, -6500.18, -173504.09, -163335.64, -166301.16, -170929.55, 38087.26, -118135.83, -137503.64, -101525.17, -152368.81, -141355.52, -157816.86, -146715.58, 0.00, 0.00, 0.00
222, -6347.60, 5232.41, -6468.08, -6500.18, -173504.09, -163335.64, -166301.16, -170929.55, 38067.99, -118126.59, -137496.80, -101513.26, -152364.08, -141353.19, -157815.22, -146713.09, 0.00, 0.00, 0.00
223, -6348.74, 5233.17, -6469.04, -6501.23, -173504.53, -163335.05, -166300.22, -170929.75, 38067.99, -118126.59, -137496.80, -101513.26, -152364.08, -141353.19, -157815.22, -146713.09, 0.00, 0.00, 0.00
224, -6348.74, 5233.17, -6469.04, -6501.23, -173504.53, -163335.05, -166300.22, -170929.75, 38064.15, -118121.34, -137493.58, -101505.23, -152363.34, -141355.41, -157818.39, -146716.16, 0.14, -0.09, 1.00
225, -6348.72, 5233.91, -6469.22, -6501.47, -173504.14, -163333.69, -166298.83, -170929.69, 38064.15, -118121.34, -137493.58, -101505.23, -152363.34, -141355.41, -157818.39, -146716.16, 0.00, 0.00, 0.00
226, -6348.72, 5233.91, -6469.22, -6501.47, -173504.14, -163333.69, -166298.83, -170929.69, 38044.48, -118110.64, -137485.19, -101491.89, -152356.97, -141351.56, -157815.38, -146712.28, 0.00, 0.00, 0.00
227, -6346.69, 5231.43, -6467.12, -6499.37, -173501.34, -163329.75, -166294.77, -170926.59, 38044.48, -118110.64, -137485.19, -101491.89, -152356.97, -141351.56, -157815.38, -146712.28, 0.00, 0.00, 0.00
228, -6346.69, 5231.43, -6467.12, -6499.37, -173501.34, -163329.75, -166294.77, -170926.59, 38038.62, -118104.73, -137481.39, -101483.11, -152355.66, -141353.08, -157817.81, -146714.55, 0.00, 0.00, 0.00
229, -6348.30, 5233.42, -6468.73, -6500.87, -173502.48, -163329.91, -166294.77, -170928.02, 38038.62, -118104.73, -137481.39, -101483.11, -152355.66, -141353.08, -157817.81, -146714.55, 0.00, 0.00, 0.00
230, -6348.30, 5233.42, -6468.73, -6500.87, -173502.48, -163329.91, -166294.77, -170928.02, 38021.10, -118094.81, -137473.91, -101470.57, -152350.27, -141350.23, -157815.81, -146711.81, 0.00, 0.00, 0.00
231, -6345.97, 5230.73, -6466.47, -6498.61, -173499.52, -163325.84, -166290.42, -170924.75, 38021.10, -118094.81, -137473.91, -101470.57, -152350.27, -141350.23, -157815.81, -146711.81, 0.00, 0.00, 0.00
232, -6345.97, 5230.73, -6466.47, -6498.61, -173499.52, -163325.84, -166290.42, -170924.75, 38012.92, -118087.84, -137469.13, -101461.00, -152347.83, -141350.55, -157817.13, -146712.80, 0.00, 0.00, 0.00
233, -6347.00, 5232.41, -6467.66, -6499.69, -173500.19, -163325.39, -166290.00, -170925.75, 38012.92, -118087.84, -137469.13, -101461.00, -152347.83, -141350.55, -157817.13, -146712.80, 0.00, 0.00, 0.00
234, -6347.00, 5232.41, -6467.66, -6499.69, -173500.19, -163325.39, -166290.00, -170925.75, 37998.77, -118079.63, -137463.14, -101450.14, -152344.20, -141349.50, -157816.78, -146712.02, 0.14, -0.09, 0.99
235, -6345.97, 5231.16, -6466.65, -6498.79, -173498.58, -163322.78, -166287.11, -170923.83, 37998.77, -118079.63, -137463.14, -101450.14, -152344.20, -141349.50, -157816.78, -146712.02, 0.00, 0.00, 0.00
236, -6345.97, 5231.16, -6466.65, -6498.79, -173498.58, -163322.78, -166287.11, -170923.83, 37989.00, -118072.98, -137458.63, -101440.73, -152342.09, -141350.08, -157818.22, -146713.11, 0.00, 0.00, 0.00
237, -6347.87, 5233.30, -6468.62, -6500.58, -173499.95, -163323.09, -166287.39, -170925.53, 37989.00, -118072.98, -137458.63, -101440.73, -152342.09, -141350.08, -157818.22, -146713.11, 0.00, 0.00, 0.00
238, -6347.87, 5233.30, -6468.62, -6500.58, -173499.95, -163323.09, -166287.39, -170925.53, 37976.35, -118064.62, -137452.66, -101429.69, -152338.36, -141348.98, -157817.84, -146712.38, 0.00, 0.00, 0.00
239, -6345.82, 5231.05, -6466.61, -6498.68, -173497.34, -163319.41, -166283.34, -170922.67, 37976.35, -118064.62, -137452.66, -101429.69, -152338.36, -141348.98, -157817.84, -146712.38, 0.00, 0.00, 0.00
240, -6345.82, 5231.05, -6466.61, -6498.68, -173497.34, -163319.41, -166283.34, -170922.67, 37964.28, -118057.28, -137447.52, -101419.70, -152335.47, -141348.77, -157818.52, -146712.47, 0.00, 0.00, 0.00
241, -6348.19, 5233.88, -6468.89, -6501.03, -173499.16, -163320.25, -166284.14, -170924.91, 37964.28, -118057.28, -137447.52, -101419.70, -152335.47, -141348.77, -157818.52, -146712.47, 0.00, 0.00, 0.00
242, -6348.19, 5233.88, -6468.89, -6501.03, -173499.16, -163320.25, -166284.14, -170924.91, 37954.96, -118050.42, -137442.89, -101410.09, -152333.09, -141349.19, -157819.81, -146713.42, 0.00, 0.00, 0.00
243, -6346.44, 5231.92, -6467.28, -6499.44, -173496.92, -163316.81, -166280.55, -170922.22, 37954.96, -118050.42, -137442.89, -101410.09, -152333.09, -141349.19, -157819.81, -146713.42, 0.00, 0.00, 0.00
244, -6346.44, 5231.92, -6467.28, -6499.44, -173496.92, -163316.81, -166280.55, -170922.22, 37938.42, -118040.30, -137435.11, -101397.30, -152327.53, -141346.19, -157817.69, -146710.63, 0.14, -0.09, 1.00
245, -6345.86, 5231.45, -6466.56, -6498.57, -173495.59, -163314.48, -166278.20, -170921.28, 37938.42, -118040.30, -137435.11, -101397.30, -152327.53, -141346.19, -157817.69, -146710.63, 0.00, 0.00, 0.00
246, -6345.86, 5231.45, -6466.56, -6498.57, -173495.59, -163314.48, -166278.20, -170921.28, 37931.71, -118034.48, -137431.55, -101388.90, -152326.48, -141347.84, -157820.36, -146712.94, 0.00, 0.00, 0.00
247, -6347.00, 5232.41, -6467.88, -6499.95, -173496.30, -163314.06, -166277.50, -170921.58, 37931.71, -118034.48, -137431.55, -101388.90, -152326.48, -141347.84, -157820.36, -146712.94, 0.00, 0.00, 0.00
248, -6347.00, 5232.41, -6467.88, -6499.95, -173496.30, -163314.06, -166277.50, -170921.58, 37915.84, -118026.51, -137425.84, -101378.14, -152322.84, -141346.70, -157820.05, -146711.97, 0.00, 0.00, 0.00
249, -6347.98, 5233.82, -6468.84, -6500.87, -173496.67, -163313.47, -166276.81, -170922.17, 37915.84, -118026.51, -137425.84, -101378.14, -152322.84, -141346.70, -157820.05, -146711.97, 0.00, 0.00, 0.00
250, -6347.98, 5233.82, -6468.84, -6500.87, -173496.67, -163313.47, -166276.81, -170922.17, 37909.18, -118019.22, -137420.78, -101368.27, -152320.25, -141346.95, -157821.28, -146712.95, 0.00, 0.00, 0.00
251, -6345.19, 5231.02, -6466.23, -6498.19, -173493.50, -163309.17, -166272.14, -170918.75, 37909.18, -118019.22, -137420.78, -101368.27, -152320.25, -141346.95, -157821.28, -146712.95, 0.00, 0.00, 0.00
252, -6345.19, 5231.02, -6466.23, -6498.19, -173493.50, -163309.17, -166272.14, -170918.75, 37890.25, -118009.67, -137413.58, -101356.02, -152315.13, -141344.36, -157819.38, -146710.28, 0.00, 0.00, 0.00
253, -6348.25, 5234.00, -6469.02, -6501.07, -173495.86, -163310.47, -166273.28, -170921.30, 37890.25, -118009.67, -137413.58, -101356.02, -152315.13, -141344.36, -157819.38, -146710.28, 0.00, 0.00, 0.00
254, -6348.25, 5234.00, -6469.02, -6501.07, -173495.86, -163310.47, -166273.28, -170921.30, 37888.04, -118005.78, -137411.84, -101349.42, -152315.95, -141347.98, -157824.03, -146714.91, 0.13, -0.10, 0.98
255, -6347.11, 5232.83, -6468.06, -6500.00, -173494.19, -163307.72, -166270.48, -170919.42, 37888.04, -118005.78, -137411.84, -101349.42, -152315.95, -141347.98, -157824.03, -146714.91, 0.00, 0.00, 0.00
0, -6347.11, 5232.83, -6468.06, -6500.00, -173494.19, -163307.72, -166270.48, -170919.42, 37866.83, -117994.74, -137403.17, -101335.67, -152309.34, -141343.80, -157820.45, -146710.52, 0.00, 0.00, 0.00
1, -6346.29, 5232.25, -6467.21, -6499.19, -173492.67, -163305.34, -166267.83, -170918.28, 37866.83, -117994.74, -137403.17, -101335.67, -152309.34, -141343.80, -157820.45, -146710.52, 0.00, 0.00, 0.00
2, -6346.29, 5232.25, -6467.21, -6499.19, -173492.67, -163305.34, -166267.83, -170918.28, 37862.11, -117987.55, -137398.02, -101325.69, -152306.55, -141344.09, -157821.86, -146711.86, 0.00, 0.00, 0.00
3, -6345.39, 5231.58, -6466.45, -6498.48, -173491.39, -163302.94, -166265.39, -170916.83, 37862.11, -117987.55, -137398.02, -101325.69, -152306.55, -141344.09, -157821.86, -146711.86, 0.00, 0.00, 0.00
4, -6345.39, 5231.58, -6466.45, -6498.48, -173491.39, -163302.94, -166265.39, -170916.83, 37841.43, -117977.64, -137390.48, -101313.03, -152301.23, -141340.98, -157819.42, -146708.64, 0.00, 0.00, 0.00
5, -6345.17, 5231.20, -6466.11, -6498.08, -173490.48, -163300.91, -166263.17, -170915.94, 37841.43, -117977.64, -137390.48, -101313.03, -152301.23, -141340.98, -157819.42, -146708.64, 0.00, 0.00, 0.00
6, -6345.17, 5231.20, -6466.11, -6498.08, -173490.48, -163300.91, -166263.17, -170915.94, 37838.80, -117972.34, -137387.39, -101305.10, -152300.56, -141343.38, -157822.88, -146711.91, 0.00, 0.00, 0.00
7, -6344.34, 5230.62, -6465.49, -6497.50, -173489.23, -163298.55, -166260.81, -170914.73, 37838.80, -117972.34, -137387.39, -101305.10, -152300.56, -141343.38, -157822.88, -146711.91, 0.13, -0.09, 0.98
8, -6344.34, 5230.62, -6465.49, -6497.50, -173489.23, -163298.55, -166260.81, -170914.73, 37817.03, -117961.33, -137378.72, -101291.42, -152293.94, -141339.17, -157819.38, -146707.50, 0.00, 0.00, 0.00
9, -6344.70, 5230.84, -6465.62, -6497.63, -173488.84, -163297.17, -166259.09, -170914.27, 37817.03, -117961.33, -137378.72, -101291.42, -152293.94, -141339.17, -157819.38, -146707.50, 0.00, 0.00, 0.00
10, -6344.70, 5230.84, -6465.62, -6497.63, -173488.84, -163297.17, -166259.09, -170914.27, 37813.76, -117955.29, -137374.83, -101282.68, -152292.59, -141340.77, -157821.97, -146710.08, 0.00, 0.00, 0.00
11, -6342.22, 5228.72, -6463.25, -6495.26, -173485.97, -163293.14, -166255.16, -170911.45, 37813.76, -117955.29, -137374.83, -101282.68, -152292.59, -141340.77, -157821.97, -146710.08, 0.00, 0.00, 0.00
12, -6342.22, 5228.72, -6463.25, -6495.26, -173485.97, -163293.14, -166255.16, -170911.45, 37791.34, -117943.36, -137365.25, -101268.09, -152285.05, -141335.70, -157817.55, -146704.81, 0.00, 0.00, 0.00
13, -6342.96, 5228.88, -6463.68, -6495.77, -173485.89, -163291.95, -166253.70, -170911.20, 37791.34, -117943.36, -137365.25, -101268.09, -152285.05, -141335.70, -157817.55, -146704.81, 0.00, 0.00, 0.00
14, -6342.96, 5228.88, -6463.68, -6495.77, -173485.89, -163291.95, -166253.70, -170911.20, 37789.82, -117939.94, -137364.03, -101262.02, -152286.31, -141339.89, -157822.83, -146709.83, 0.00, 0.00, 0.00
15, -6344.03, 5230.42, -6464.82, -6497.00, -173486.50, -163291.67, -166253.30, -170912.00, 37789.82, -117939.94, -137364.03, -101262.02, -152286.31, -141339.89, -157822.83, -146709.83, 0.00, 0.00, 0.00
16, -6344.03, 5230.42, -6464.82, -6497.00, -173486.50, -163291.67, -166253.30, -170912.00, 37770.76, -117930.46, -137356.83, -101249.82, -152281.25, -141337.25, -157820.88, -146707.17, 0.00, 0.00, 0.00
17, -6344.74, 5230.87, -6465.33, -6497.65, -173486.61, -163290.58, -166251.98, -170911.89, 37770.76, -117930.46, -137356.83, -101249.82, -152281.25, -141337.25, -157820.88, -146707.17, 0.13, -0.09, 0.99
18, -6344.74, 5230.87, -6465.33, -6497.65, -173486.61, -163290.58, -166251.98, -170911.89, 37767.65, -117926.34, -137354.80, -101242.91, -152281.56, -141340.58, -157825.13, -146711.44, 0.00, 0.00, 0.00
19, -6345.95, 5232.43, -6466.47, -6498.72, -173487.27, -163290.22, -166251.47, -170912.73, 37767.65, -117926.34, -137354.80, -101242.91, -152281.56, -141340.58, -157825.13, -146711.44, 0.00, 0.00, 0.00
20, -6345.95, 5232.43, -6466.47, -6498.72, -173487.27, -163290.22, -166251.47, -170912.73, 37747.80, -117914.97, -137345.78, -101228.88, -152274.70, -141336.16, -157821.48, -146707.02, 0.00, 0.00, 0.00
21, -6342.33, 5228.16, -6462.69, -6494.95, -173482.75, -163284.72, -166245.63, -170908.03, 37747.80, -117914.97, -137345.78, -101228.88, -152274.70, -141336.16, -157821.48, -146707.02, 0.00, 0.00, 0.00
22, -6342.33, 5228.16, -6462.69, -6494.95, -173482.75, -163284.72, -166245.63, -170908.03, 37740.63, -117908.17, -137341.23, -101219.47, -152272.66, -141336.89, -157823.22, -146708.44, 0.00, 0.00, 0.00
23, -6344.70, 5230.98, -6465.06, -6497.32, -173484.64, -163285.55, -166246.53, -170910.23, 37740.63, -117908.17, -137341.23, -101219.47, -152272.66, -141336.89, -157823.22, -146708.44, 0.00, 0.00, 0.00
24, -6344.70, 5230.98, -6465.06, -6497.32, -173484.64, -163285.55, -166246.53, -170910.23, 37725.50, -117899.88, -137335.33, -101208.61, -152268.86, -141335.66, -157822.75, -146707.30, 0.00, 0.00, 0.00
25, -6343.40, 5229.32, -6463.86, -6496.09, -173482.70, -163282.45, -166243.16, -170907.95, 37725.50, -117899.88, -137335.33, -101208.61, -152268.86, -141335.66, -157822.75, -146707.30, 0.00, 0.00, 0.00
26, -6343.40, 5229.32, -6463.86, -6496.09, -173482.70, -163282.45, -166243.16, -170907.95, 37716.38, -117892.51, -137330.05, -101198.44, -152266.11, -141335.59, -157823.61, -146707.88, 0.00, 0.00, 0.00
27, -6344.14, 5230.51, -6464.50, -6496.69, -173482.86, -163281.56, -166242.22, -170908.42, 37716.38, -117892.51, -137330.05, -101198.44, -152266.11, -141335.59, -157823.61, -146707.88, 0.13, -0.09, 0.98
28, -6344.14, 5230.51, -6464.50, -6496.69, -173482.86, -163281.56, -166242.22, -170908.42, 37702.16, -117883.63, -137323.55, -101186.95, -152261.89, -141333.97, -157822.73, -146706.50, 0.00, 0.00, 0.00
29, -6341.61, 5227.49, -6462.02, -6494.28, -173479.75, -163277.47, -166237.66, -170904.86, 37702.16, -117883.63, -137323.55, -101186.95, -152261.89, -141333.97, -157822.73, -146706.50, 0.00, 0.00, 0.00
30, -6341.61, 5227.49, -6462.02, -6494.28, -173479.75, -163277.47, -166237.66, -170904.86, 37690.61, -117875.88, -137317.92, -101176.38, -152258.45, -141333.25, -157822.98, -146706.20, 0.00, 0.00, 0.00
31, -6344.77, 5231.09, -6465.13, -6497.36, -173482.34, -163279.05, -166239.19, -170907.88, 37690.61, -117875.88, -137317.92, -101176.38, -152258.45, -141333.25, -157822.98, -146706.20, 0.00, 0.00, 0.00
32, -6344.77, 5231.09, -6465.13, -6497.36, -173482.34, -163279.05, -166239.19, -170907.88, 37680.30, -117868.97, -137313.22, -101166.90, -152256.09, -141333.72, -157824.23, -146707.09, 0.00, 0.00, 0.00
33, -6342.26, 5228.34, -6462.63, -6494.97, -173479.28, -163274.84, -166234.77, -170904.45, 37680.30, -117868.97, -137313.22, -101166.90, -152256.09, -141333.72, -157824.23, -146707.09, 0.00, 0.00, 0.00
34, -6342.26, 5228.34, -6462.63, -6494.97, -173479.28, -163274.84, -166234.77, -170904.45, 37666.71, -117860.70, -137307.16, -101155.84, -152252.33, -141332.44, -157823.89, -146706.16, 0.00, 0.00, 0.00
35, -6343.85, 5230.33, -6464.17, -6496.51, -173480.20, -163274.84, -166234.70, -170905.81, 37666.71, -117860.70, -137307.16, -101155.84, -152252.33, -141332.44, -157823.89, -146706.16, 0.00, 0.00, 0.00
36, -6343.85, 5230.33, -6464.17, -6496.51, -173480.20, -163274.84, -166234.70, -170905.81, 37658.35, -117854.28, -137303.00, -101146.70, -152250.52, -141333.45, -157825.86, -146707.77, 0.00, 0.00, 0.00
37, -6341.57, 5227.76, -6462.13, -6494.43, -173477.52, -163271.02, -166230.61, -170902.77, 37658.35, -117854.28, -137303.00, -101146.70, -152250.52, -141333.45, -157825.86, -146707.77, 0.12, -0.09, 0.98
38, -6341.57, 5227.76, -6462.13, -6494.43, -173477.52, -163271.02, -166230.61, -170902.77, 37639.26, -117842.05, -137293.27, -101131.85, -152242.86, -141328.31, -157821.42, -146702.83, 0.00, 0.00, 0.00
39, -6341.44, 5227.96, -6461.96, -6494.23, -173476.67, -163269.19, -166228.75, -170902.27, 37639.26, -117842.05, -137293.27, -101131.85, -152242.86, -141328.31, -157821.42, -146702.83, 0.00, 0.00, 0.00
40, -6341.44, 5227.96, -6461.96, -6494.23, -173476.67, -163269.19, -166228.75, -170902.27, 37635.55, -117838.46, -137291.88, -101125.63, -152243.92, -141332.31, -157826.41, -146707.45, 0.00, 0.00, 0.00
41, -6343.40, 5229.91, -6463.99, -6496.36, -173478.16, -163269.63, -166228.95, -170903.41, 37635.55, -117838.46, -137291.88, -101125.63, -152243.92, -141332.31, -157826.41, -146707.45, 0.00, 0.00, 0.00
42, -6343.40, 5229.91, -6463.99, -6496.36, -173478.16, -163269.63, -166228.95, -170903.41, 37617.56, -117828.85, -137284.55, -101113.32, -152238.78, -141329.58, -157824.39, -146704.80, 0.00, 0.00, 0.00
43, -6342.24, 5228.74, -6462.56, -6494.75, -173476.06, -163266.59, -166225.89, -170901.70, 37617.56, -117828.85, -137284.55, -101113.32, -152238.78, -141329.58, -157824.39, -146704.80, 0.00, 0.00, 0.00
44, -6342.24, 5228.74, -6462.56, -6494.75, -173476.06, -163266.59, -166225.89, -170901.70, 37611.19, -117821.36, -137279.25, -101103.35, -152236.08, -141329.78, -157825.55, -146705.73, 0.00, 0.00, 0.00
45, -6341.19, 5227.47, -6461.51, -6493.74, -173474.61, -163263.94, -166222.97, -170900.00, 37611.19, -117821.36, -137279.25, -101103.35, -152236.08, -141329.78, -157825.55, -146705.73, 0.00, 0.00, 0.00
46, -6341.19, 5227.47, -6461.51, -6493.74, -173474.61, -163263.94, -166222.97, -170900.00, 37593.15, -117813.07, -137273.34, -101092.29, -152232.23, -141328.22, -157824.67, -146704.17, 0.00, 0.00, 0.00
47, -6343.69, 5230.11, -6463.90, -6496.13, -173476.27, -163264.58, -166223.56, -170901.92, 37593.15, -117813.07, -137273.34, -101092.29, -152232.23, -141328.22, -157824.67, -146704.17, 0.13, -0.09, 0.99
48, -6343.69, 5230.11, -6463.90, -6496.13, -173476.27, -163264.58, -166223.56, -170901.92, 37590.18, -117808.09, -137270.50, -101084.62, -152231.78, -141330.83, -157828.30, -146707.70, 0.00, 0.00, 0.00
49, -6343.09, 5229.73, -6463.45, -6495.71, -173475.30, -163262.50, -166221.41, -170900.69, 37590.18, -117808.09, -137270.50, -101084.62, -152231.78, -141330.83, -157828.30, -146707.70, 0.00, 0.00, 0.00
50, -6343.09, 5229.73, -6463.45, -6495.71, -173475.30, -163262.50, -166221.41, -170900.69, 37569.62, -117797.76, -137262.42, -101071.52, -152225.86, -141327.23, -157825.53, -146704.06, 0.00, 0.00, 0.00
51, -6342.33, 5229.01, -6462.60, -6494.86, -173473.89, -163259.97, -166218.72, -170899.42, 37569.62, -117797.76, -137262.42, -101071.52, -152225.86, -141327.23, -157825.53, -146704.06, 0.00, 0.00, 0.00
52, -6342.33, 5229.01, -6462.60, -6494.86, -173473.89, -163259.97, -166218.72, -170899.42, 37566.35, -117791.88, -137258.80, -101063.07, -152224.77, -141329.14, -157828.44, -146706.78, 0.00, 0.00, 0.00
53, -6342.44, 5229.21, -6462.98, -6495.28, -173473.67, -163258.72, -166217.31, -170899.16, 37566.35, -117791.88, -137258.80, -101063.07, -152224.77, -141329.14, -157828.44, -146706.78, 0.00, 0.00, 0.00
54, -6342.44, 5229.21, -6462.98, -6495.28, -173473.67, -163258.72, -166217.31, -170899.16, 37545.61, -117781.93, -137251.28, -101050.45, -152219.33, -141326.03, -157825.97, -146703.53, 0.00, 0.00, 0.00
55, -6342.40, 5229.03, -6462.78, -6495.06, -173472.94, -163256.98, -166215.23, -170898.44, 37545.61, -117781.93, -137251.28, -101050.45, -152219.33, -141326.03, -157825.97, -146703.53, 0.00, 0.00, 0.00
56, -6342.40, 5229.03, -6462.78, -6495.06, -173472.94, -163256.98, -166215.23, -170898.44, 37543.33, -117776.84, -137248.20, -101042.60, -152218.73, -141328.47, -157829.50, -146706.97, 0.00, 0.00, 0.00
57, -6341.10, 5228.14, -6461.67, -6493.85, -173471.22, -163254.09, -166212.44, -170896.67, 37543.33, -117776.84, -137248.20, -101042.60, -152218.73, -141328.47, -157829.50, -146706.97, 0.13, -0.09, 0.98
58, -6341.10, 5228.14, -6461.67, -6493.85, -173471.22, -163254.09, -166212.44, -170896.67, 37520.13, -117764.12, -137237.78, -101027.24, -152210.53, -141322.55, -157824.33, -146700.81, 0.00, 0.00, 0.00
59, -6339.33, 5226.28, -6459.81, -6492.15, -173468.75, -163250.67, -166208.70, -170894.23, 37520.13, -117764.12, -137237.78, -101027.24, -152210.53, -141322.55, -157824.33, -146700.81, 0.00, 0.00, 0.00
60, -6339.33, 5226.28, -6459.81, -6492.15, -173468.75, -163250.67, -166208.70, -170894.23, 37517.36, -117758.91, -137234.78, -101019.40, -152209.94, -141325.03, -157827.78, -146704.31, 0.00, 0.00, 0.00
61, -6341.41, 5228.48, -6461.96, -6494.19, -173470.36, -163251.23, -166209.22, -170895.94, 37517.36, -117758.91, -137234.78, -101019.40, -152209.94, -141325.03, -157827.78, -146704.31, 0.00, 0.00, 0.00
62, -6341.41, 5228.48, -6461.96, -6494.19, -173470.36, -163251.23, -166209.22, -170895.94, 37498.69, -117750.30, -137228.59, -101008.11, -152205.89, -141323.28, -157826.67, -146702.47, 0.00, 0.00, 0.00
63, -6340.99, 5227.72, -6461.44, -6493.74, -173469.22, -163248.94, -166206.67, -170894.61, 37498.69, -117750.30, -137228.59, -101008.11, -152205.89, -141323.28, -157826.67, -146702.47, 0.00, 0.00, 0.00
64, -6340.99, 5227.72, -6461.44, -6493.74, -173469.22, -163248.94, -166206.67, -170894.61, 37494.45, -117744.29, -137224.66, -100999.39, -152204.47, -141324.86, -157829.28, -146705.00, 0.00, 0.00, 0.00
65, -6341.32, 5228.68, -6461.96, -6494.28, -173469.09, -163247.88, -166205.48, -170894.75, 37494.45, -117744.29, -137224.66, -100999.39, -152204.47, -141324.86, -157829.28, -146705.00, 0.00, 0.00, 0.00
66, -6341.32, 5228.68, -6461.96, -6494.28, -173469.09, -163247.88, -166205.48, -170894.75, 37475.31, -117734.32, -137217.05, -100986.77, -152198.97, -141321.77, -157826.95, -146701.80, 0.00, 0.00, 0.00
67, -6339.29, 5226.26, -6459.72, -6492.09, -173466.41, -163244.11, -166201.42, -170891.73, 37475.31, -117734.32, -137217.05, -100986.77, -152198.97, -141321.77, -157826.95, -146701.80, 0.13, -0.09, 0.98
68, -6339.29, 5226.26, -6459.72, -6492.09, -173466.41, -163244.11, -166201.42, -170891.73, 37468.86, -117727.26, -137212.14, -100976.91, -152196.53, -141322.16, -157828.39, -146703.02, 0.00, 0.00, 0.00
69, -6340.32, 5227.60, -6460.68, -6493.07, -173466.88, -163243.55, -166200.81, -170892.52, 37468.86, -117727.26, -137212.14, -100976.91, -152196.53, -141322.16, -157828.39, -146703.02, 0.00, 0.00, 0.00
70, -6340.32, 5227.60, -6460.68, -6493.07, -173466.88, -163243.55, -166200.81, -170892.52, 37452.13, -117718.50, -137205.83, -100965.55, -152192.39, -141320.44, -157827.39, -146701.38, 0.00, 0.00, 0.00
71, -6339.58, 5226.62, -6460.15, -6492.42, -173465.61, -163241.25, -166198.11, -170890.95, 37452.13, -117718.50, -137205.83, -100965.55, -152192.39, -141320.44, -157827.39, -146701.38, 0.00, 0.00, 0.00
72, -6339.58, 5226.62, -6460.15, -6492.42, -173465.61, -163241.25, -166198.11, -170890.95, 37446.37, -117713.40, -137202.92, -100957.80, -152191.81, -141322.77, -157830.64, -146704.31, 0.00, 0.00, 0.00
73, -6342.84, 5230.42, -6463.45, -6495.69, -173468.33, -163242.83, -166199.86, -170893.97, 37446.37, -117713.40, -137202.92, -100957.80, -152191.81, -141322.77, -157830.64, -146704.31, 0.00, 0.00, 0.00
74, -6342.84, 5230.42, -6463.45, -6495.69, -173468.33, -163242.83, -166199.86, -170893.97, 37431.28, -117704.53, -137196.41, -100946.17, -152187.55, -141321.11, -157829.84, -146702.78, 0.00, 0.00, 0.00
75, -6339.89, 5227.09, -6460.39, -6492.67, -173464.64, -163238.14, -166194.80, -170889.92, 37431.28, -117704.53, -137196.41, -100946.17, -152187.55, -141321.11, -157829.84, -146702.78, 0.00, 0.00, 0.00
76, -6339.89, 5227.09, -6460.39, -6492.67, -173464.64, -163238.14, -166194.80, -170889.92, 37422.50, -117698.16, -137192.28, -100937.03, -152185.69, -141322.05, -157831.70, -146704.31, 0.00, 0.00, 0.00
77, -6342.40, 5230.02, -6462.94, -6495.15, -173466.70, -163239.19, -166195.81, -170892.45, 37422.50, -117698.16, -137192.28, -100937.03, -152185.69, -141322.05, -157831.70, -146704.31, 0.13, -0.09, 0.98
78, -6342.40, 5230.02, -6462.94, -6495.15, -173466.70, -163239.19, -166195.81, -170892.45, 37408.97, -117689.51, -137185.86, -100925.56, -152181.48, -141320.58, -157830.92, -146703.13, 0.00, 0.00, 0.00
79, -6341.06, 5228.25, -6461.51, -6493.76, -173464.70, -163236.14, -166192.41, -170889.98, 37408.97, -117689.51, -137185.86, -100925.56, -152181.48, -141320.58, -157830.92, -146703.13, 0.00, 0.00, 0.00
80, -6341.06, 5228.25, -6461.51, -6493.76, -173464.70, -163236.14, -166192.41, -170889.98, 37398.11, -117682.66, -137181.39, -100916.06, -152179.30, -141321.02, -157832.25, -146703.88, 0.00, 0.00, 0.00
81, -6342.15, 5229.91, -6462.63, -6494.92, -173465.22, -163235.66, -166191.89, -170890.92, 37398.11, -117682.66, -137181.39, -100916.06, -152179.30, -141321.02, -157832.25, -146703.88, 0.00, 0.00, 0.00
82, -6342.15, 5229.91, -6462.63, -6494.92, -173465.22, -163235.66, -166191.89, -170890.92, 37388.30, -117675.65, -137176.55, -100906.27, -152176.77, -141321.22, -157833.47, -146704.64, 0.00, 0.00, 0.00
83, -6342.80, 5230.22, -6463.30, -6495.62, -173465.38, -163234.69, -166190.80, -170890.86, 37388.30, -117675.65, -137176.55, -100906.27, -152176.77, -141321.22, -157833.47, -146704.64, 0.00, 0.00, 0.00
84, -6342.80, 5230.22, -6463.30, -6495.62, -173465.38, -163234.69, -166190.80, -170890.86, 37374.89, -117668.05, -137171.31, -100895.97, -152173.75, -141320.73, -157833.83, -146704.47, 0.00, 0.00, 0.00
85, -6343.04, 5230.69, -6463.48, -6495.73, -173464.97, -163233.16, -166189.33, -170890.66, 37374.89, -117668.05, -137171.31, -100895.97, -152173.75, -141320.73, -157833.83, -146704.47, 0.00, 0.00, 0.00
86, -6343.04, 5230.69, -6463.48, -6495.73, -173464.97, -163233.16, -166189.33, -170890.66, 37366.82, -117661.21, -137166.73, -100886.31, -152171.55, -141321.47, -157835.36, -146705.69, 0.13, -0.09, 0.99
87, -6343.83, 5231.29, -6464.42, -6496.65, -173465.27, -163232.38, -166188.19, -170890.66, 37366.82, -117661.21, -137166.73, -100886.31, -152171.55, -141321.47, -157835.36, -146705.69, 0.00, 0.00, 0.00
88, -6343.83, 5231.29, -6464.42, -6496.65, -173465.27, -163232.38, -166188.19, -170890.66, 37350.79, -117652.60, -137160.33, -100874.96, -152167.41, -141319.80, -157834.48, -146704.17, 0.00, 0.00, 0.00
89, -6341.99, 5229.86, -6462.54, -6494.63, -173462.86, -163228.97, -166184.67, -170888.48, 37350.79, -117652.60, -137160.33, -100874.96, -152167.41, -141319.80, -157834.48, -146704.17, 0.00, 0.00, 0.00
90, -6341.99, 5229.86, -6462.54, -6494.63, -173462.86, -163228.97, -166184.67, -170888.48, 37343.46, -117644.85, -137154.84, -100864.39, -152164.25, -141319.64, -157835.20, -146704.75, 0.00, 0.00, 0.00
91, -6342.37, 5230.04, -6462.96, -6495.24, -173462.83, -163227.78, -166183.25, -170888.13, 37343.46, -117644.85, -137154.84, -100864.39, -152164.25, -141319.64, -157835.20, -146704.75, 0.00, 0.00, 0.00
92, -6342.37, 5230.04, -6462.96, -6495.24, -173462.83, -163227.78, -166183.25, -170888.13, 37325.33, -117635.70, -137147.97, -100852.54, -152159.56, -141317.38, -157833.75, -146702.45, 0.00, 0.00, 0.00
93, -6341.39, 5229.19, -6461.82, -6494.05, -173461.05, -163225.06, -166180.34, -170886.61, 37325.33, -117635.70, -137147.97, -100852.54, -152159.56, -141317.38, -157833.75, -146702.45, 0.00, 0.00, 0.00
94, -6341.39, 5229.19, -6461.82, -6494.05, -173461.05, -163225.06, -166180.34, -170886.61, 37319.95, -117628.73, -137143.17, -100842.84, -152157.23, -141317.95, -157835.41, -146703.88, 0.00, 0.00, 0.00
95, -6339.80, 5227.54, -6460.41, -6492.60, -173458.97, -163221.89, -166177.09, -170884.41, 37319.95, -117628.73, -137143.17, -100842.84, -152157.23, -141317.95, -157835.41, -146703.88, 0.00, 0.00, 0.00
96, -6339.80, 5227.54, -6460.41, -6492.60, -173458.97, -163221.89, -166177.09, -170884.41, 37300.12, -117618.79, -137135.48, -100829.99, -152151.63, -141314.77, -157832.92, -146700.58, 0.13, -0.10, 0.99
97, -6341.84, 5229.77, -6462.34, -6494.54, -173460.38, -163222.27, -166177.22, -170886.03, 37300.12, -117618.79, -137135.48, -100829.99, -152151.63, -141314.77, -157832.92, -146700.58, 0.00, 0.00, 0.00
98, -6341.84, 5229.77, -6462.34, -6494.54, -173460.38, -163222.27, -166177.22, -170886.03, 37297.48, -117613.71, -137132.63, -100822.21, -152151.31, -141317.47, -157836.61, -146704.17, 0.00, 0.00, 0.00
99, -6339.96, 5227.87, -6460.57, -6492.82, -173458.03, -163218.88, -166173.69, -170883.55, 37297.48, -117613.71, -137132.63, -100822.21, -152151.31, -141317.47, -157836.61, -146704.17, 0.00, 0.00, 0.00
100, -6339.96, 5227.87, -6460.57, -6492.82, -173458.03, -163218.88, -166173.69, -170883.55, 37276.09, -117602.76, -137124.14, -100808.53, -152144.83, -141313.31, -157833.17, -146699.98, 0.00, 0.00, 0.00
101, -6339.51, 5227.18, -6459.90, -6492.13, -173456.75, -163216.64, -166171.22, -170882.30, 37276.09, -117602.76, -137124.14, -100808.53, -152144.83, -141313.31, -157833.17, -146699.98, 0.00, 0.00, 0.00
102, -6339.51, 5227.18, -6459.90, -6492.13, -173456.75, -163216.64, -166171.22, -170882.30, 37270.97, -117594.87, -137118.31, -100798.01, -152141.59, -141313.09, -157834.02, -146700.69, 0.00, 0.00, 0.00
103, -6335.60, 5223.63, -6456.30, -6488.47, -173452.48, -163211.42, -166165.86, -170878.09, 37270.97, -117594.87, -137118.31, -100798.01, -152141.59, -141313.09, -157834.02, -146700.69, 0.00, 0.00, 0.00
104, -6335.60, 5223.63, -6456.30, -6488.47, -173452.48, -163211.42, -166165.86, -170878.09, 37248.76, -117583.29, -137109.17, -100783.54, -152134.53, -141308.27, -157829.89, -146695.77, 0.00, 0.00, 0.00
105, -6337.88, 5225.77, -6458.42, -6490.63, -173454.11, -163211.83, -166166.19, -170879.61, 37248.76, -117583.29, -137109.17, -100783.54, -152134.53, -141308.27, -157829.89, -146695.77, 0.00, 0.00, 0.00
106, -6337.88, 5225.77, -6458.42, -6490.63, -173454.11, -163211.83, -166166.19, -170879.61, 37248.36, -117580.01, -137107.98, -100777.53, -152135.80, -141312.69, -157835.34, -146701.06, 0.12, -0.09, 0.99
107, -6336.54, 5224.92, -6457.28, -6489.43, -173452.38, -163209.08, -166163.22, -170877.92, 37248.36, -117580.01, -137107.98, -100777.53, -152135.80, -141312.69, -157835.34, -146701.06, 0.00, 0.00, 0.00
108, -6336.54, 5224.92, -6457.28, -6489.43, -173452.38, -163209.08, -166163.22, -170877.92, 37224.84, -117567.00, -137097.38, -100761.77, -152127.31, -141306.52, -157829.75, -146694.73, 0.00, 0.00, 0.00
109, -6336.67, 5224.65, -6457.33, -6489.47, -173451.75, -163207.31, -166161.34, -170877.27, 37224.84, -117567.00, -137097.38, -100761.77, -152127.31, -141306.52, -157829.75, -146694.73, 0.00, 0.00, 0.00
110, -6336.67, 5224.65, -6457.33, -6489.47, -173451.75, -163207.31, -166161.34, -170877.27, 37227.03, -117566.82, -137099.45, -100758.82, -152131.91, -141314.09, -157838.52, -146703.20, 0.00, 0.00, 0.00
111, -6342.42, 5230.75, -6463.10, -6495.26, -173457.13, -163211.63, -166165.56, -170882.75, 37227.03, -117566.82, -137099.45, -100758.82, -152131.91, -141314.09, -157838.52, -146703.20, 0.00, 0.00, 0.00
112, -6342.42, 5230.75, -6463.10, -6495.26, -173457.13, -163211.63, -166165.56, -170882.75, 37208.12, -117557.68, -137092.59, -100746.82, -152127.17, -141311.72, -157836.77, -146700.81, 0.00, 0.00, 0.00
113, -6339.07, 5227.16, -6459.63, -6491.91, -173453.02, -163206.39, -166160.11, -170878.50, 37208.12, -117557.68, -137092.59, -100746.82, -152127.17, -141311.72, -157836.77, -146700.81, 0.00, 0.00, 0.00
114, -6339.07, 5227.16, -6459.63, -6491.91, -173453.02, -163206.39, -166160.11, -170878.50, 37202.29, -117550.21, -137087.30, -100736.56, -152124.41, -141311.92, -157837.89, -146701.73, 0.00, 0.00, 0.00
115, -6339.47, 5228.14, -6460.21, -6492.40, -173453.08, -163205.41, -166159.08, -170878.70, 37202.29, -117550.21, -137087.30, -100736.56, -152124.41, -141311.92, -157837.89, -146701.73, 0.00, 0.00, 0.00
116, -6339.47, 5228.14, -6460.21, -6492.40, -173453.08, -163205.41, -166159.08, -170878.70, 37182.80, -117539.53, -137078.94, -100722.99, -152118.14, -141307.98, -157834.84, -146697.98, 0.13, -0.09, 0.99
117, -6336.03, 5224.23, -6456.73, -6488.89, -173448.91, -163200.19, -166153.67, -170874.41, 37182.80, -117539.53, -137078.94, -100722.99, -152118.14, -141307.98, -157834.84, -146697.98, 0.00, 0.00, 0.00
118, -6336.03, 5224.23, -6456.73, -6488.89, -173448.91, -163200.19, -166153.67, -170874.41, 37174.59, -117531.16, -137072.83, -100711.73, -152114.33, -141307.17, -157835.00, -146697.89, 0.00, 0.00, 0.00
119, -6336.25, 5224.92, -6456.95, -6489.16, -173448.61, -163198.89, -166152.22, -170874.36, 37174.59, -117531.16, -137072.83, -100711.73, -152114.33, -141307.17, -157835.00, -146697.89, 0.00, 0.00, 0.00
120, -6336.25, 5224.92, -6456.95, -6489.16, -173448.61, -163198.89, -166152.22, -170874.36, 37159.80, -117523.66, -137067.64, -100701.49, -152111.34, -141306.72, -157835.27, -146697.47, 0.00, 0.00, 0.00
121, -6338.26, 5226.60, -6458.96, -6491.19, -173450.00, -163199.16, -166152.17, -170875.39, 37159.80, -117523.66, -137067.64, -100701.49, -152111.34, -141306.72, -157835.27, -146697.47, 0.00, 0.00, 0.00
122, -6338.26, 5226.60, -6458.96, -6491.19, -173450.00, -163199.16, -166152.17, -170875.39, 37153.36, -117518.41, -137064.63, -100693.31, -152110.66, -141308.89, -157838.36, -146700.28, 0.00, 0.00, 0.00
123, -6338.44, 5227.38, -6459.14, -6491.46, -173449.67, -163197.92, -166150.91, -170875.48, 37153.36, -117518.41, -137064.63, -100693.31, -152110.66, -141308.89, -157838.36, -146700.28, 0.00, 0.00, 0.00
124, -6338.44, 5227.38, -6459.14, -6491.46, -173449.67, -163197.92, -166150.91, -170875.48, 37137.15, -117507.85, -137056.52, -100680.08, -152104.80, -141305.64, -157835.86, -146697.22, 0.00, 0.00, 0.00
125, -6336.25, 5224.63, -6457.08, -6489.23, -173446.83, -163193.80, -166146.61, -170872.33, 37137.15, -117507.85, -137056.52, -100680.08, -152104.80, -141305.64, -157835.86, -146697.22, 0.00, 0.00, 0.00
126, -6336.25, 5224.63, -6457.08, -6489.23, -173446.83, -163193.80, -166146.61, -170872.33, 37127.74, -117501.44, -137052.28, -100670.82, -152102.94, -141306.52, -157837.69, -146698.56, 0.13, -0.09, 0.99
127, -6338.24, 5227.02, -6458.92, -6491.19, -173448.13, -163194.27, -166146.84, -170874.08, 37127.74, -117501.44, -137052.28, -100670.82, -152102.94, -141306.52, -157837.69, -146698.56, 0.00, 0.00, 0.00
128, -6338.24, 5227.02, -6458.92, -6491.19, -173448.13, -163194.27, -166146.84, -170874.08, 37116.52, -117494.09, -137047.25, -100660.66, -152100.16, -141306.31, -157838.42, -146698.86, 0.00, 0.00, 0.00
129, -6337.23, 5225.66, -6457.89, -6490.19, -173446.53, -163191.48, -166143.86, -170871.95, 37116.52, -117494.09, -137047.25, -100660.66, -152100.16, -141306.31, -157838.42, -146698.86, 0.00, 0.00, 0.00
130, -6337.23, 5225.66, -6457.89, -6490.19, -173446.53, -163191.48, -166143.86, -170871.95, 37103.71, -117485.95, -137041.36, -100649.73, -152096.64, -141305.52, -157838.31, -146698.30, 0.00, 0.00, 0.00
131, -6339.16, 5227.94, -6459.65, -6491.86, -173447.77, -163191.69, -166144.00, -170873.63, 37103.71, -117485.95, -137041.36, -100649.73, -152096.64, -141305.52, -157838.31, -146698.30, 0.00, 0.00, 0.00
132, -6339.16, 5227.94, -6459.65, -6491.86, -173447.77, -163191.69, -166144.00, -170873.63, 37094.37, -117478.80, -137036.44, -100639.66, -152094.00, -141305.56, -157839.34, -146698.97, 0.00, 0.00, 0.00
133, -6335.71, 5223.92, -6456.28, -6488.35, -173443.61, -163186.45, -166138.61, -170869.14, 37094.37, -117478.80, -137036.44, -100639.66, -152094.00, -141305.56, -157839.34, -146698.97, 0.00, 0.00, 0.00
134, -6335.71, 5223.92, -6456.28, -6488.35, -173443.61, -163186.45, -166138.61, -170869.14, 37076.04, -117466.86, -137026.83, -100624.91, -152086.56, -141300.66, -157835.27, -146694.27, 0.00, 0.00, 0.00
135, -6335.94, 5224.47, -6456.32, -6488.42, -173443.09, -163184.88, -166137.05, -170869.00, 37076.04, -117466.86, -137026.83, -100624.91, -152086.56, -141300.66, -157835.27, -146694.27, 0.00, 0.00, 0.00
136, -6335.94, 5224.47, -6456.32, -6488.42, -173443.09, -163184.88, -166137.05, -170869.00, 37071.55, -117462.93, -137025.13, -100618.09, -152087.14, -141304.23, -157839.81, -146698.45, 0.13, -0.09, 0.99
137, -6337.77, 5226.15, -6458.29, -6490.28, -173444.50, -163185.19, -166136.95, -170869.98, 37071.55, -117462.93, -137025.13, -100618.09, -152087.14, -141304.23, -157839.81, -146698.45, 0.00, 0.00, 0.00
138, -6337.77, 5226.15, -6458.29, -6490.28, -173444.50, -163185.19, -166136.95, -170869.98, 37054.32, -117453.63, -137018.06, -100605.94, -152082.31, -141301.91, -157838.17, -146696.14, 0.00, 0.00, 0.00
139, -6336.18, 5224.92, -6456.66, -6488.76, -173442.41, -163182.08, -166133.83, -170868.13, 37054.32, -117453.63, -137018.06, -100605.94, -152082.31, -141301.91, -157838.17, -146696.14, 0.00, 0.00, 0.00
140, -6336.18, 5224.92, -6456.66, -6488.76, -173442.41, -163182.08, -166133.83, -170868.13, 37048.91, -117447.39, -137013.97, -100596.86, -152080.66, -141303.30, -157840.55, -146698.25, 0.00, 0.00, 0.00
141, -6336.88, 5225.59, -6457.66, -6489.72, -173442.80, -163181.36, -166132.94, -170868.31, 37048.91, -117447.39, -137013.97, -100596.86, -152080.66, -141303.30, -157840.55, -146698.25, 0.00, 0.00, 0.00
142, -6336.88, 5225.59, -6457.66, -6489.72, -173442.80, -163181.36, -166132.94, -170868.31, 37029.91, -117437.58, -137006.59, -100584.26, -152075.36, -141300.39, -157838.31, -146695.36, 0.00, 0.00, 0.00
143, -6337.37, 5226.35, -6458.11, -6490.10, -173442.48, -163180.14, -166131.50, -170868.28, 37029.91, -117437.58, -137006.59, -100584.26, -152075.36, -141300.39, -157838.31, -146695.36, 0.00, 0.00, 0.00
144, -6337.37, 5226.35, -6458.11, -6490.10, -173442.48, -163180.14, -166131.50, -170868.28, 37028.41, -117434.05, -137005.27, -100577.95, -152076.45, -141304.59, -157843.47, -146700.33, 0.00, 0.00, 0.00
145, -6337.61, 5226.71, -6458.60, -6490.54, -173442.33, -163178.88, -166130.09, -170867.91, 37028.41, -117434.05, -137005.27, -100577.95, -152076.45, -141304.59, -157843.47, -146700.33, 0.00, 0.00, 0.00
146, -6337.61, 5226.71, -6458.60, -6490.54, -173442.33, -163178.88, -166130.09, -170867.91, 37006.15, -117421.82, -136995.31, -100562.88, -152068.64, -141298.98, -157838.77, -146694.77, 0.12, -0.09, 0.99
147, -6337.77, 5226.93, -6458.63, -6490.54, -173441.73, -163177.25, -166128.42, -170867.53, 37006.15, -117421.82, -136995.31, -100562.88, -152068.64, -141298.98, -157838.77, -146694.77, 0.00, 0.00, 0.00
148, -6337.77, 5226.93, -6458.63, -6490.54, -173441.73, -163177.25, -166128.42, -170867.53, 37006.06, -117419.05, -136994.70, -100557.37, -152070.67, -141304.08, -157844.86, -146700.73, 0.00, 0.00, 0.00
149, -6338.42, 5227.60, -6459.36, -6491.28, -173441.97, -163176.47, -166127.33, -170867.61, 37006.06, -117419.05, -136994.70, -100557.37, -152070.67, -141304.08, -157844.86, -146700.73, 0.00, 0.00, 0.00
150, -6338.42, 5227.60, -6459.36, -6491.28, -173441.97, -163176.47, -166127.33, -170867.61, 36984.83, -117408.44, -136986.58, -100543.98, -152064.55, -141300.39, -157841.69, -146696.75, 0.00, 0.00, 0.00
151, -6339.07, 5228.16, -6459.88, -6491.86, -173441.91, -163175.31, -166125.92, -170867.61, 36984.83, -117408.44, -136986.58, -100543.98, -152064.55, -141300.39, -157841.69, -146696.75, 0.00, 0.00, 0.00
152, -6339.07, 5228.16, -6459.88, -6491.86, -173441.91, -163175.31, -166125.92, -170867.61, 36983.84, -117404.50, -136984.78, -100537.16, -152065.17, -141304.08, -157846.42, -146701.41, 0.00, 0.00, 0.00
153, -6339.22, 5228.68, -6460.15, -6492.13, -173441.75, -163174.03, -166124.42, -170867.30, 36983.84, -117404.50, -136984.78, -100537.16, -152065.17, -141304.08, -157846.42, -146701.41, 0.00, 0.00, 0.00
154, -6339.22, 5228.68, -6460.15, -6492.13, -173441.75, -163174.03, -166124.42, -170867.30, 36962.21, -117393.46, -136976.11, -100523.34, -152058.53, -141299.78, -157842.88, -146696.94, 0.00, 0.00, 0.00
155, -6338.95, 5228.05, -6459.74, -6491.77, -173440.66, -163171.94, -166122.25, -170866.30, 36962.21, -117393.46, -136976.11, -100523.34, -152058.53, -141299.78, -157842.88, -146696.94, 0.00, 0.00, 0.00
156, -6338.95, 5228.05, -6459.74, -6491.77, -173440.66, -163171.94, -166122.25, -170866.30, 36959.86, -117388.45, -136973.19, -100515.52, -152058.16, -141302.53, -157846.61, -146700.64, 0.12, -0.09, 0.99
157, -6339.11, 5228.59, -6460.12, -6491.93, -173440.45, -163170.59, -166120.86, -170866.16, 36959.86, -117388.45, -136973.19, -100515.52, -152058.16, -141302.53, -157846.61, -146700.64, 0.00, 0.00, 0.00
158, -6339.11, 5228.59, -6460.12, -6491.93, -173440.45, -163170.59, -166120.86, -170866.16, 36938.94, -117377.79, -136964.88, -100502.00, -152052.03, -141298.66, -157843.44, -146696.58, 0.00, 0.00, 0.00
159, -6338.02, 5227.11, -6458.83, -6490.77, -173438.53, -163167.61, -166117.69, -170864.13, 36938.94, -117377.79, -136964.88, -100502.00, -152052.03, -141298.66, -157843.44, -146696.58, 0.00, 0.00, 0.00
160, -6338.02, 5227.11, -6458.83, -6490.77, -173438.53, -163167.61, -166117.69, -170864.13, 36935.00, -117371.55, -136960.91, -100493.15, -152050.44, -141300.19, -157846.00, -146699.02, 0.00, 0.00, 0.00
161, -6336.63, 5226.31, -6457.46, -6489.49, -173436.77, -163164.84, -166114.77, -170862.58, 36935.00, -117371.55, -136960.91, -100493.15, -152050.44, -141300.19, -157846.00, -146699.02, 0.00, 0.00, 0.00
162, -6336.63, 5226.31, -6457.46, -6489.49, -173436.77, -163164.84, -166114.77, -170862.58, 36914.42, -117360.29, -136951.91, -100479.02, -152043.69, -141295.75, -157842.31, -146694.47, 0.00, 0.00, 0.00
163, -6337.59, 5226.87, -6458.31, -6490.32, -173436.98, -163163.91, -166113.67, -170862.55, 36914.42, -117360.29, -136951.91, -100479.02, -152043.69, -141295.75, -157842.31, -146694.47, 0.00, 0.00, 0.00
164, -6337.59, 5226.87, -6458.31, -6490.32, -173436.98, -163163.91, -166113.67, -170862.55, 36911.56, -117356.45, -136950.25, -100472.34, -152044.34, -141299.44, -157847.02, -146699.03, 0.00, 0.00, 0.00
165, -6337.01, 5226.71, -6457.75, -6489.78, -173436.02, -163161.92, -166111.56, -170861.75, 36911.56, -117356.45, -136950.25, -100472.34, -152044.34, -141299.44, -157847.02, -146699.03, 0.13, -0.09, 0.99
166, -6337.01, 5226.71, -6457.75, -6489.78, -173436.02, -163161.92, -166111.56, -170861.75, 36891.11, -117344.30, -136940.45, -100457.34, -152036.73, -141294.20, -157842.52, -146693.83, 0.00, 0.00, 0.00
167, -6335.04, 5224.32, -6455.81, -6487.75, -173433.38, -163158.31, -166107.61, -170858.94, 36891.11, -117344.30, -136940.45, -100457.34, -152036.73, -141294.20, -157842.52, -146693.83, 0.00, 0.00, 0.00
168, -6335.04, 5224.32, -6455.81, -6487.75, -173433.38, -163158.31, -166107.61, -170858.94, 36885.25, -117338.63, -136937.05, -100448.96, -152035.64, -141296.09, -157845.38, -146696.34, 0.00, 0.00, 0.00
169, -6337.19, 5227.16, -6458.09, -6489.99, -173435.06, -163158.92, -166108.22, -170860.95, 36885.25, -117338.63, -136937.05, -100448.96, -152035.64, -141296.09, -157845.38, -146696.34, 0.00, 0.00, 0.00
170, -6337.19, 5227.16, -6458.09, -6489.99, -173435.06, -163158.92, -166108.22, -170860.95, 36870.45, -117330.43, -136931.20, -100438.03, -152031.94, -141294.98, -157844.97, -146695.50, 0.00, 0.00, 0.00
171, -6336.32, 5225.88, -6457.26, -6489.09, -173433.45, -163156.22, -166105.31, -170859.03, 36870.45, -117330.43, -136931.20, -100438.03, -152031.94, -141294.98, -157844.97, -146695.50, 0.00, 0.00, 0.00
172, -6336.32, 5225.88, -6457.26, -6489.09, -173433.45, -163156.22, -166105.31, -170859.03, 36863.10, -117324.93, -136927.94, -100429.70, -152031.02, -141296.84, -157847.80, -146697.89, 0.00, 0.00, 0.00
173, -6339.58, 5229.44, -6460.46, -6492.33, -173436.28, -163158.00, -166106.98, -170862.16, 36863.10, -117324.93, -136927.94, -100429.70, -152031.02, -141296.84, -157847.80, -146697.89, 0.00, 0.00, 0.00
174, -6339.58, 5229.44, -6460.46, -6492.33, -173436.28, -163158.00, -166106.98, -170862.16, 36850.61, -117317.48, -136922.83, -100419.48, -152028.14, -141296.55, -157848.30, -146697.94, 0.00, 0.00, 0.00
175, -6337.75, 5227.34, -6458.83, -6490.61, -173433.92, -163154.52, -166103.36, -170859.44, 36850.61, -117317.48, -136922.83, -100419.48, -152028.14, -141296.55, -157848.30, -146697.94, 0.12, -0.09, 0.99
176, -6337.75, 5227.34, -6458.83, -6490.61, -173433.92, -163154.52, -166103.36, -170859.44, 36839.52, -117309.88, -136917.58, -100409.20, -152025.16, -141296.22, -157848.95, -146698.05, 0.00, 0.00, 0.00
177, -6339.56, 5229.75, -6460.64, -6492.49, -173435.30, -163154.81, -166103.66, -170861.11, 36839.52, -117309.88, -136917.58, -100409.20, -152025.16, -141296.22, -157848.95, -146698.05, 0.00, 0.00, 0.00
178, -6339.56, 5229.75, -6460.64, -6492.49, -173435.30, -163154.81, -166103.66, -170861.11, 36828.36, -117301.84, -136911.81, -100398.49, -152021.77, -141295.52, -157849.11, -146697.78, 0.00, 0.00, 0.00
179, -6336.34, 5226.22, -6457.42, -6489.38, -173431.66, -163150.00, -166098.56, -170857.05, 36828.36, -117301.84, -136911.81, -100398.49, -152021.77, -141295.52, -157849.11, -146697.78, 0.00, 0.00, 0.00
180, -6336.34, 5226.22, -6457.42, -6489.38, -173431.66, -163150.00, -166098.56, -170857.05, 36812.94, -117291.69, -136904.08, -100385.55, -152016.16, -141292.55, -157847.02, -146695.14, 0.00, 0.00, 0.00
181, -6336.79, 5226.78, -6457.80, -6489.58, -173431.27, -163148.70, -166097.11, -170857.13, 36812.94, -117291.69, -136904.08, -100385.55, -152016.16, -141292.55, -157847.02, -146695.14, 0.00, 0.00, 0.00
182, -6336.79, 5226.78, -6457.80, -6489.58, -173431.27, -163148.70, -166097.11, -170857.13, 36803.22, -117283.63, -136898.19, -100374.73, -152012.67, -141291.81, -157847.17, -146694.98, 0.00, 0.00, 0.00
183, -6333.10, 5222.91, -6454.27, -6486.03, -173427.09, -163143.41, -166091.61, -170852.58, 36803.22, -117283.63, -136898.19, -100374.73, -152012.67, -141291.81, -157847.17, -146694.98, 0.00, 0.00, 0.00
184, -6333.10, 5222.91, -6454.27, -6486.03, -173427.09, -163143.41, -166091.61, -170852.58, 36786.34, -117273.59, -136890.48, -100361.85, -152007.13, -141288.75, -157844.92, -146692.11, 0.00, 0.00, 0.00
185, -6335.74, 5226.04, -6456.79, -6488.73, -173429.02, -163144.48, -166092.59, -170854.83, 36786.34, -117273.59, -136890.48, -100361.85, -152007.13, -141288.75, -157844.92, -146692.11, 0.13, -0.09, 0.99
186, -6335.74, 5226.04, -6456.79, -6488.73, -173429.02, -163144.48, -166092.59, -170854.83, 36782.25, -117269.52, -136888.56, -100354.95, -152007.64, -141292.17, -157849.38, -146696.27, 0.00, 0.00, 0.00
187, -6335.13, 5225.35, -6456.32, -6488.22, -173427.92, -163142.22, -166090.20, -170853.42, 36782.25, -117269.52, -136888.56, -100354.95, -152007.64, -141292.17, -157849.38, -146696.27, 0.00, 0.00, 0.00
188, -6335.13, 5225.35, -6456.32, -6488.22, -173427.92, -163142.22, -166090.20, -170853.42, 36763.84, -117259.51, -136880.98, -100342.14, -152002.08, -141289.17, -157847.03, -146693.27, 0.00, 0.00, 0.00
189, -6336.03, 5226.24, -6456.97, -6488.82, -173427.97, -163141.36, -166089.14, -170853.83, 36763.84, -117259.51, -136880.98, -100342.14, -152002.08, -141289.17, -157847.03, -146693.27, 0.00, 0.00, 0.00
190, -6336.03, 5226.24, -6456.97, -6488.82, -173427.97, -163141.36, -166089.14, -170853.83, 36758.45, -117252.82, -136876.53, -100332.77, -152000.11, -141290.25, -157849.00, -146695.00, 0.00, 0.00, 0.00
191, -6333.17, 5223.22, -6454.29, -6485.98, -173424.63, -163136.89, -166084.34, -170850.16, 36758.45, -117252.82, -136876.53, -100332.77, -152000.11, -141290.25, -157849.00, -146695.00, 0.00, 0.00, 0.00
192, -6333.17, 5223.22, -6454.29, -6485.98, -173424.63, -163136.89, -166084.34, -170850.16, 36738.06, -117241.91, -136867.92, -100319.01, -151993.69, -141286.16, -157845.64, -146690.92, 0.00, 0.00, 0.00
193, -6335.94, 5226.13, -6456.75, -6488.58, -173426.58, -163137.84, -166085.33, -170852.39, 36738.06, -117241.91, -136867.92, -100319.01, -151993.69, -141286.16, -157845.64, -146690.92, 0.00, 0.00, 0.00
194, -6335.94, 5226.13, -6456.75, -6488.58, -173426.58, -163137.84, -166085.33, -170852.39, 36738.80, -117240.28, -136868.48, -100314.49, -151996.63, -141292.19, -157852.78, -146697.89, 0.00, 0.00, 0.00
195, -6338.22, 5228.56, -6459.23, -6491.08, -173428.61, -163138.69, -166085.97, -170854.20, 36738.80, -117240.28, -136868.48, -100314.49, -151996.63, -141292.19, -157852.78, -146697.89, 0.13, -0.09, 0.99
196, -6338.22, 5228.56, -6459.23, -6491.08, -173428.61, -163138.69, -166085.97, -170854.20, 36718.84, -117230.63, -136861.20, -100302.02, -151991.45, -141289.39, -157850.58, -146694.89, 0.00, 0.00, 0.00
197, -6336.99, 5227.20, -6457.82, -6489.74, -173426.64, -163135.63, -166082.73, -170852.39, 36718.84, -117230.63, -136861.20, -100302.02, -151991.45, -141289.39, -157850.58, -146694.89, 0.00, 0.00, 0.00
198, -6336.99, 5227.20, -6457.82, -6489.74, -173426.64, -163135.63, -166082.73, -170852.39, 36714.26, -117223.18, -136856.02, -100291.91, -151988.73, -141289.63, -157851.83, -146696.13, 0.00, 0.00, 0.00
199, -6335.67, 5225.97, -6456.57, -6488.51, -173424.86, -163132.75, -166079.80, -170850.52, 36714.26, -117223.18, -136856.02, -100291.91, -151988.73, -141289.63, -157851.83, -146696.13, 0.00, 0.00, 0.00
200, -6335.67, 5225.97, -6456.57, -6488.51, -173424.86, -163132.75, -166079.80, -170850.52, 36693.92, -117213.44, -136848.69, -100279.34, -151983.44, -141286.67, -157849.58, -146693.06, 0.00, 0.00, 0.00
201, -6337.10, 5227.36, -6457.84, -6489.87, -173425.56, -163132.38, -166079.25, -170851.30, 36693.92, -117213.44, -136848.69, -100279.34, -151983.44, -141286.67, -157849.58, -146693.06, 0.00, 0.00, 0.00
202, -6337.10, 5227.36, -6457.84, -6489.87, -173425.56, -163132.38, -166079.25, -170851.30, 36691.91, -117208.32, -136845.72, -100271.51, -151983.00, -141289.44, -157853.31, -146696.59, 0.00, 0.00, 0.00
203, -6335.15, 5225.73, -6456.06, -6488.06, -173423.14, -163128.97, -166075.64, -170848.86, 36691.91, -117208.32, -136845.72, -100271.51, -151983.00, -141289.44, -157853.31, -146696.59, 0.00, 0.00, 0.00
204, -6335.15, 5225.73, -6456.06, -6488.06, -173423.14, -163128.97, -166075.64, -170848.86, 36669.06, -117196.05, -136835.81, -100256.35, -151975.11, -141283.73, -157848.48, -146690.94, 0.00, 0.00, 0.00
205, -6334.71, 5224.79, -6455.45, -6487.39, -173421.86, -163126.64, -166073.09, -170847.52, 36669.06, -117196.05, -136835.81, -100256.35, -151975.11, -141283.73, -157848.48, -146690.94, 0.13, -0.09, 0.99
206, -6334.71, 5224.79, -6455.45, -6487.39, -173421.86, -163126.64, -166073.09, -170847.52, 36667.77, -117192.27, -136834.30, -100249.67, -151975.97, -141287.67, -157853.41, -146695.81, 0.00, 0.00, 0.00
207, -6335.76, 5226.24, -6456.50, -6488.55, -173422.44, -163126.25, -166072.53, -170848.23, 36667.77, -117192.27, -136834.30, -100249.67, -151975.97, -141287.67, -157853.41, -146695.81, 0.00, 0.00, 0.00
208, -6335.76, 5226.24, -6456.50, -6488.55, -173422.44, -163126.25, -166072.53, -170848.23, 36646.55, -117180.76, -136825.23, -100235.50, -151969.06, -141283.05, -157849.59, -146691.09, 0.00, 0.00, 0.00
209, -6333.39, 5223.83, -6454.09, -6486.32, -173419.56, -163122.20, -166068.22, -170845.16, 36646.55, -117180.76, -136825.23, -100235.50, -151969.06, -141283.05, -157849.59, -146691.09, 0.00, 0.00, 0.00
210, -6333.39, 5223.83, -6454.09, -6486.32, -173419.56, -163122.20, -166068.22, -170845.16, 36640.92, -117173.20, -136819.88, -100225.20, -151966.17, -141283.14, -157850.67, -146691.98, 0.00, 0.00, 0.00
211, -6331.82, 5222.66, -6452.73, -6484.78, -173417.48, -163119.16, -166065.20, -170843.31, 36640.92, -117173.20, -136819.88, -100225.20, -151966.17, -141283.14, -157850.67, -146691.98, 0.00, 0.00, 0.00
212, -6331.82, 5222.66, -6452.73, -6484.78, -173417.48, -163119.16, -166065.20, -170843.31, 36621.14, -117162.48, -136811.52, -100211.61, -151959.88, -141279.36, -157847.48, -146688.17, 0.00, 0.00, 0.00
213, -6331.98, 5222.40, -6452.81, -6484.87, -173417.05, -163117.69, -166063.28, -170842.53, 36621.14, -117162.48, -136811.52, -100211.61, -151959.88, -141279.36, -157847.48, -146688.17, 0.00, 0.00, 0.00
214, -6331.98, 5222.40, -6452.81, -6484.87, -173417.05, -163117.69, -166063.28, -170842.53, 36617.23, -117157.88, -136809.22, -100204.23, -151959.94, -141282.38, -157851.45, -146691.97, 0.00, 0.00, 0.00
215, -6333.01, 5223.94, -6453.86, -6485.96, -173417.50, -163117.22, -166062.70, -170843.41, 36617.23, -117157.88, -136809.22, -100204.23, -151959.94, -141282.38, -157851.45, -146691.97, 0.13, -0.09, 0.99
216, -6333.01, 5223.94, -6453.86, -6485.96, -173417.50, -163117.22, -166062.70, -170843.41, 36600.36, -117148.59, -136802.22, -100192.09, -151955.14, -141280.05, -157849.94, -146689.70, 0.00, 0.00, 0.00
217, -6331.98, 5222.64, -6452.84, -6485.02, -173415.83, -163114.38, -166059.70, -170841.47, 36600.36, -117148.59, -136802.22, -100192.09, -151955.14, -141280.05, -157849.94, -146689.70, 0.00, 0.00, 0.00
218, -6331.98, 5222.64, -6452.84, -6485.02, -173415.83, -163114.38, -166059.70, -170841.47, 36592.35, -117141.27, -136797.05, -100181.95, -151952.47, -141280.23, -157851.03, -146690.38, 0.00, 0.00, 0.00
219, -6332.36, 5223.49, -6453.26, -6485.29, -173415.67, -163113.22, -166058.53, -170841.58, 36592.35, -117141.27, -136797.05, -100181.95, -151952.47, -141280.23, -157851.03, -146690.38, 0.00, 0.00, 0.00
220, -6332.36, 5223.49, -6453.26, -6485.29, -173415.67, -163113.22, -166058.53, -170841.58, 36577.33, -117132.32, -136790.39, -100170.08, -151947.98, -141278.36, -157850.00, -146688.77, 0.00, 0.00, 0.00
221, -6331.73, 5222.28, -6452.46, -6484.51, -173414.30, -163110.73, -166055.55, -170839.83, 36577.33, -117132.32, -136790.39, -100170.08, -151947.98, -141278.36, -157850.00, -146688.77, 0.00, 0.00, 0.00
222, -6331.73, 5222.28, -6452.46, -6484.51, -173414.30, -163110.73, -166055.55, -170839.83, 36569.87, -117127.38, -136787.70, -100162.32, -151947.63, -141280.72, -157853.22, -146691.67, 0.00, 0.00, 0.00
223, -6335.09, 5226.13, -6455.79, -6487.75, -173417.17, -163112.50, -166057.31, -170842.95, 36569.87, -117127.38, -136787.70, -100162.32, -151947.63, -141280.72, -157853.22, -146691.67, 0.00, 0.00, 0.00
224, -6335.09, 5226.13, -6455.79, -6487.75, -173417.17, -163112.50, -166057.31, -170842.95, 36557.80, -117119.54, -136782.17, -100151.73, -151944.34, -141280.09, -157853.47, -146691.44, 0.00, 0.00, 0.00
225, -6334.28, 5225.10, -6455.03, -6487.03, -173415.78, -163109.91, -166054.66, -170841.22, 36557.80, -117119.54, -136782.17, -100151.73, -151944.34, -141280.09, -157853.47, -146691.44, 0.13, -0.09, 0.99
226, -6334.28, 5225.10, -6455.03, -6487.03, -173415.78, -163109.91, -166054.66, -170841.22, 36546.78, -117112.59, -136777.53, -100141.91, -151941.88, -141280.39, -157854.63, -146692.06, 0.00, 0.00, 0.00
227, -6334.01, 5225.12, -6454.65, -6486.68, -173414.89, -163108.05, -166052.64, -170840.64, 36546.78, -117112.59, -136777.53, -100141.91, -151941.88, -141280.39, -157854.63, -146692.06, 0.00, 0.00, 0.00
228, -6334.01, 5225.12, -6454.65, -6486.68, -173414.89, -163108.05, -166052.64, -170840.64, 36534.06, -117102.57, -136769.81, -100129.06, -151936.45, -141277.70, -157852.78, -146689.89, 0.00, 0.00, 0.00
229, -6331.51, 5222.19, -6452.26, -6484.20, -173411.80, -163103.83, -166048.27, -170837.27, 36534.06, -117102.57, -136769.81, -100129.06, -151936.45, -141277.70, -157852.78, -146689.89, 0.00, 0.00, 0.00
230, -6331.51, 5222.19, -6452.26, -6484.20, -173411.80, -163103.83, -166048.27, -170837.27, 36520.60, -117095.04, -136764.63, -100118.63, -151933.41, -141277.33, -157853.20, -146689.69, 0.00, 0.00, 0.00
231, -6334.39, 5225.46, -6455.12, -6486.97, -173414.06, -163105.03, -166049.42, -170839.86, 36520.60, -117095.04, -136764.63, -100118.63, -151933.41, -141277.33, -157853.20, -146689.69, 0.00, 0.00, 0.00
232, -6334.39, 5225.46, -6455.12, -6486.97, -173414.06, -163105.03, -166049.42, -170839.86, 36512.02, -117087.24, -136759.14, -100108.12, -151930.17, -141277.06, -157853.83, -146689.98, 0.00, 0.00, 0.00
233, -6329.52, 5220.47, -6450.22, -6482.27, -173408.69, -163098.55, -166042.70, -170834.05, 36512.02, -117087.24, -136759.14, -100108.12, -151930.17, -141277.06, -157853.83, -146689.98, 0.00, 0.00, 0.00
234, -6329.52, 5220.47, -6450.22, -6482.27, -173408.69, -163098.55, -166042.70, -170834.05, 36492.91, -117075.53, -136749.67, -100093.45, -151922.98, -141272.23, -157849.83, -146685.47, 0.00, 0.00, 0.00
235, -6330.77, 5221.84, -6451.32, -6483.26, -173409.16, -163098.06, -166042.08, -170834.98, 36492.91, -117075.53, -136749.67, -100093.45, -151922.98, -141272.23, -157849.83, -146685.47, 0.13, -0.08, 0.99
236, -6330.77, 5221.84, -6451.32, -6483.26, -173409.16, -163098.06, -166042.08, -170834.98, 36489.27, -117071.41, -136747.81, -100086.46, -151923.48, -141275.69, -157854.31, -146689.64, 0.00, 0.00, 0.00
237, -6333.17, 5224.07, -6453.86, -6485.74, -173410.97, -163098.81, -166042.63, -170836.52, 36489.27, -117071.41, -136747.81, -100086.46, -151923.48, -141275.69, -157854.31, -146689.64, 0.00, 0.00, 0.00
238, -6333.17, 5224.07, -6453.86, -6485.74, -173410.97, -163098.81, -166042.63, -170836.52, 36473.73, -117064.73, -136743.45, -100076.94, -151921.22, -141275.81, -157855.14, -146689.75, 0.00, 0.00, 0.00
239, -6335.20, 5226.28, -6455.74, -6487.64, -173412.34, -163099.17, -166042.98, -170838.09, 36473.73, -117064.73, -136743.45, -100076.94, -151921.22, -141275.81, -157855.14, -146689.75, 0.00, 0.00, 0.00
240, -6335.20, 5226.28, -6455.74, -6487.64, -173412.34, -163099.17, -166042.98, -170838.09, 36470.74, -117059.84, -136740.72, -100069.18, -151921.05, -141278.59, -157858.83, -146693.22, 0.00, 0.00, 0.00
241, -6333.66, 5224.99, -6454.40, -6486.57, -173410.55, -163096.19, -166039.77, -170836.03, 36470.74, -117059.84, -136740.72, -100069.18, -151921.05, -141278.59, -157858.83, -146693.22, 0.00, 0.00, 0.00
242, -6333.66, 5224.99, -6454.40, -6486.57, -173410.55, -163096.19, -166039.77, -170836.03, 36449.12, -117047.86, -136731.16, -100054.38, -151913.56, -141273.56, -157854.50, -146688.13, 0.00, 0.00, 0.00
243, -6333.39, 5224.74, -6453.95, -6486.05, -173409.47, -163094.13, -166037.53, -170835.22, 36449.12, -117047.86, -136731.16, -100054.38, -151913.56, -141273.56, -157854.50, -146688.13, 0.00, 0.00, 0.00
244, -6333.39, 5224.74, -6453.95, -6486.05, -173409.47, -163094.13, -166037.53, -170835.22, 36445.46, -117041.76, -136727.31, -100045.38, -151912.08, -141275.17, -157857.09, -146690.66, 0.13, -0.09, 0.99
245, -6331.47, 5222.80, -6452.17, -6484.26, -173407.06, -163090.70, -166033.89, -170832.86, 36445.46, -117041.76, -136727.31, -100045.38, -151912.08, -141275.17, -157857.09, -146690.66, 0.00, 0.00, 0.00
246, -6331.47, 5222.80, -6452.17, -6484.26, -173407.06, -163090.70, -166033.89, -170832.86, 36423.39, -117030.16, -136718.00, -100030.94, -151904.86, -141270.33, -157853.00, -146685.64, 0.00, 0.00, 0.00
247, -6331.38, 5222.78, -6452.05, -6484.17, -173406.33, -163088.97, -166031.92, -170832.13, 36423.39, -117030.16, -136718.00, -100030.94, -151904.86, -141270.33, -157853.00, -146685.64, 0.00, 0.00, 0.00
248, -6331.38, 5222.78, -6452.05, -6484.17, -173406.33, -163088.97, -166031.92, -170832.13, 36422.48, -117026.22, -136716.11, -100024.30, -151905.53, -141274.08, -157857.67, -146690.36, 0.00, 0.00, 0.00
249, -6331.44, 5223.20, -6452.19, -6484.40, -173405.98, -163087.48, -166030.42, -170831.69, 36422.48, -117026.22, -136716.11, -100024.30, -151905.53, -141274.08, -157857.67, -146690.36, 0.00, 0.00, 0.00
250, -6331.44, 5223.20, -6452.19, -6484.40, -173405.98, -163087.48, -166030.42, -170831.69, 36400.33, -117014.51, -136706.94, -100009.73, -151898.30, -141269.13, -157853.41, -146685.31, 0.00, 0.00, 0.00
251, -6331.67, 5223.24, -6452.39, -6484.46, -173405.55, -163086.03, -166028.69, -170831.25, 36400.33, -117014.51, -136706.94, -100009.73, -151898.30, -141269.13, -157853.41, -146685.31, 0.00, 0.00, 0.00
252, -6331.67, 5223.24, -6452.39, -6484.46, -173405.55, -163086.03, -166028.69, -170831.25, 36399.73, -117011.09, -136705.67, -100003.47, -151899.52, -141273.38, -157858.83, -146690.53, 0.00, 0.00, 0.00
253, -6331.62, 5223.47, -6452.57, -6484.67, -173405.16, -163084.56, -166027.14, -170830.91, 36399.73, -117011.09, -136705.67, -100003.47, -151899.52, -141273.38, -157858.83, -146690.53, 0.00, 0.00, 0.00
254, -6331.62, 5223.47, -6452.57, -6484.67, -173405.16, -163084.56, -166027.14, -170830.91, 36377.57, -116999.29, -136696.30, -99988.85, -151892.09, -141268.42, -157854.50, -146685.39, 0.13, -0.09, 0.98
255, -6332.49, 5224.03, -6453.31, -6485.34, -173405.14, -163083.59, -166025.94, -170830.84, 36377.57, -116999.29, -136696.30, -99988.85, -151892.09, -141268.42, -157854.50, -146685.39, 0.00, 0.00, 0.00
0, -6332.49, 5224.03, -6453.31, -6485.34, -173405.14, -163083.59, -166025.94, -170830.84, 36378.51, -116997.77, -136696.89, -99984.45, -151895.23, -141274.58, -157861.67, -146692.42, 0.00, 0.00, 0.00
1, -6335.71, 5227.78, -6456.73, -6488.76, -173408.05, -163085.47, -166027.70, -170833.89, 36378.51, -116997.77, -136696.89, -99984.45, -151895.23, -141274.58, -157861.67, -146692.42, 0.00, 0.00, 0.00
2, -6335.71, 5227.78, -6456.73, -6488.76, -173408.05, -163085.47, -166027.70, -170833.89, 36359.94, -116988.71, -136690.23, -99972.60, -151890.64, -141272.28, -157860.17, -146690.11, 0.00, 0.00, 0.00
3, -6335.15, 5227.02, -6456.03, -6488.17, -173406.81, -163083.06, -166025.13, -170832.41, 36359.94, -116988.71, -136690.23, -99972.60, -151890.64, -141272.28, -157860.17, -146690.11, 0.00, 0.00, 0.00
4, -6335.15, 5227.02, -6456.03, -6488.17, -173406.81, -163083.06, -166025.13, -170832.41, 36356.05, -116983.44, -136687.16, -99964.48, -151890.00, -141274.67, -157863.44, -146693.31, 0.00, 0.00, 0.00
5, -6336.94, 5229.06, -6458.07, -6489.99, -173408.16, -163083.44, -166025.36, -170833.91, 36356.05, -116983.44, -136687.16, -99964.48, -151890.00, -141274.67, -157863.44, -146693.31, 0.00, 0.00, 0.00
6, -6336.94, 5229.06, -6458.07, -6489.99, -173408.16, -163083.44, -166025.36, -170833.91, 36339.04, -116974.92, -136681.05, -99953.13, -151885.86, -141273.09, -157862.66, -146691.81, 0.00, 0.00, 0.00
7, -6336.63, 5228.45, -6457.75, -6489.81, -173407.27, -163081.39, -166023.14, -170832.81, 36339.04, -116974.92, -136681.05, -99953.13, -151885.86, -141273.09, -157862.66, -146691.81, 0.00, 0.00, 0.00
8, -6336.63, 5228.45, -6457.75, -6489.81, -173407.27, -163081.39, -166023.14, -170832.81, 36334.05, -116969.55, -136677.92, -99945.04, -151885.19, -141275.31, -157865.73, -146694.81, 0.13, -0.09, 0.98
9, -6338.19, 5230.53, -6459.41, -6491.46, -173408.30, -163081.47, -166023.20, -170834.20, 36334.05, -116969.55, -136677.92, -99945.04, -151885.19, -141275.31, -157865.73, -146694.81, 0.00, 0.00, 0.00
10, -6338.19, 5230.53, -6459.41, -6491.46, -173408.30, -163081.47, -166023.20, -170834.20, 36316.49, -116958.98, -136669.58, -99931.59, -151879.14, -141271.72, -157862.88, -146691.19, 0.00, 0.00, 0.00
11, -6333.84, 5225.79, -6455.09, -6487.17, -173403.38, -163075.34, -166016.84, -170828.91, 36316.49, -116958.98, -136669.58, -99931.59, -151879.14, -141271.72, -157862.88, -146691.19, 0.00, 0.00, 0.00
12, -6333.84, 5225.79, -6455.09, -6487.17, -173403.38, -163075.34, -166016.84, -170828.91, 36305.27, -116949.02, -136662.05, -99918.89, -151873.80, -141269.23, -157861.36, -146689.27, 0.00, 0.00, 0.00
13, -6332.41, 5224.56, -6453.60, -6485.49, -173401.31, -163072.27, -166013.70, -170827.20, 36305.27, -116949.02, -136662.05, -99918.89, -151873.80, -141269.23, -157861.36, -146689.27, 0.00, 0.00, 0.00
14, -6332.41, 5224.56, -6453.60, -6485.49, -173401.31, -163072.27, -166013.70, -170827.20, 36288.77, -116938.04, -136653.36, -99905.09, -151867.31, -141265.44, -157858.39, -146685.73, 0.00, 0.00, 0.00
15, -6329.95, 5221.68, -6451.07, -6482.99, -173398.14, -163068.02, -166009.23, -170823.69, 36288.77, -116938.04, -136653.36, -99905.09, -151867.31, -141265.44, -157858.39, -146685.73, 0.00, 0.00, 0.00
16, -6329.95, 5221.68, -6451.07, -6482.99, -173398.14, -163068.02, -166009.23, -170823.69, 36279.20, -116931.43, -136648.95, -99895.71, -151865.30, -141266.11, -157859.91, -146686.83, 0.00, 0.00, 0.00
17, -6332.65, 5225.03, -6453.84, -6485.74, -173400.36, -163069.22, -166010.27, -170826.28, 36279.20, -116931.43, -136648.95, -99895.71, -151865.30, -141266.11, -157859.91, -146686.83, 0.00, 0.00, 0.00
18, -6332.65, 5225.03, -6453.84, -6485.74, -173400.36, -163069.22, -166010.27, -170826.28, 36267.49, -116923.29, -136643.09, -99884.78, -151861.59, -141265.23, -157859.91, -146686.45, 0.13, -0.09, 0.99
19, -6329.39, 5221.43, -6450.65, -6482.48, -173396.45, -163064.27, -166004.98, -170822.03, 36267.49, -116923.29, -136643.09, -99884.78, -151861.59, -141265.23, -157859.91, -146686.45, 0.00, 0.00, 0.00
20, -6329.39, 5221.43, -6450.65, -6482.48, -173396.45, -163064.27, -166004.98, -170822.03, 36254.71, -116915.31, -136637.44, -99874.05, -151858.13, -141264.41, -157859.86, -146686.02, 0.00, 0.00, 0.00
21, -6332.29, 5224.74, -6453.48, -6485.20, -173398.70, -163065.41, -166006.22, -170824.72, 36254.71, -116915.31, -136637.44, -99874.05, -151858.13, -141264.41, -157859.86, -146686.02, 0.00, 0.00, 0.00
22, -6332.29, 5224.74, -6453.48, -6485.20, -173398.70, -163065.41, -166006.22, -170824.72, 36245.57, -116908.20, -136632.66, -99864.13, -151855.73, -141264.78, -157861.20, -146686.73, 0.00, 0.00, 0.00
23, -6329.10, 5221.19, -6450.36, -6482.05, -173394.91, -163060.53, -166001.03, -170820.42, 36245.57, -116908.20, -136632.66, -99864.13, -151855.73, -141264.78, -157861.20, -146686.73, 0.00, 0.00, 0.00
24, -6329.10, 5221.19, -6450.36, -6482.05, -173394.91, -163060.53, -166001.03, -170820.42, 36227.93, -116896.98, -136623.69, -99850.00, -151848.83, -141260.47, -157857.69, -146682.69, 0.00, 0.00, 0.00
25, -6328.81, 5221.39, -6449.89, -6481.65, -173393.94, -163058.58, -165998.91, -170819.84, 36227.93, -116896.98, -136623.69, -99850.00, -151848.83, -141260.47, -157857.69, -146682.69, 0.00, 0.00, 0.00
26, -6328.81, 5221.39, -6449.89, -6481.65, -173393.94, -163058.58, -165998.91, -170819.84, 36220.71, -116889.94, -136618.95, -99840.19, -151846.50, -141261.08, -157859.14, -146683.86, 0.00, 0.00, 0.00
27, -6327.24, 5219.67, -6448.57, -6480.28, -173392.06, -163055.52, -165995.77, -170817.59, 36220.71, -116889.94, -136618.95, -99840.19, -151846.50, -141261.08, -157859.14, -146683.86, 0.00, 0.00, 0.00
28, -6327.24, 5219.67, -6448.57, -6480.28, -173392.06, -163055.52, -165995.77, -170817.59, 36204.24, -116881.38, -136612.69, -99828.74, -151842.41, -141259.42, -157858.25, -146682.41, 0.13, -0.09, 0.99
29, -6330.10, 5222.57, -6451.23, -6482.99, -173394.08, -163056.63, -165996.72, -170819.94, 36204.24, -116881.38, -136612.69, -99828.74, -151842.41, -141259.42, -157858.25, -146682.41, 0.00, 0.00, 0.00
30, -6330.10, 5222.57, -6451.23, -6482.99, -173394.08, -163056.63, -165996.72, -170819.94, 36199.54, -116875.73, -136609.39, -99820.32, -151841.41, -141261.20, -157861.22, -146685.17, 0.00, 0.00, 0.00
31, -6327.51, 5219.94, -6448.90, -6480.51, -173391.08, -163052.63, -165992.44, -170816.77, 36199.54, -116875.73, -136609.39, -99820.32, -151841.41, -141261.20, -157861.22, -146685.17, 0.00, 0.00, 0.00
32, -6327.51, 5219.94, -6448.90, -6480.51, -173391.08, -163052.63, -165992.44, -170816.77, 36179.43, -116864.66, -136600.64, -99806.48, -151834.83, -141257.09, -157857.69, -146680.91, 0.00, 0.00, 0.00
33, -6329.03, 5221.77, -6450.31, -6481.96, -173391.94, -163052.30, -165992.08, -170817.77, 36179.43, -116864.66, -136600.64, -99806.48, -151834.83, -141257.09, -157857.69, -146680.91, 0.00, 0.00, 0.00
34, -6329.03, 5221.77, -6450.31, -6481.96, -173391.94, -163052.30, -165992.08, -170817.77, 36178.06, -116861.15, -136599.28, -99800.05, -151835.91, -141261.25, -157862.86, -146685.86, 0.00, 0.00, 0.00
35, -6329.86, 5222.71, -6451.41, -6483.01, -173392.38, -163051.70, -165991.31, -170818.11, 36178.06, -116861.15, -136599.28, -99800.05, -151835.91, -141261.25, -157862.86, -146685.86, 0.00, 0.00, 0.00
36, -6329.86, 5222.71, -6451.41, -6483.01, -173392.38, -163051.70, -165991.31, -170818.11, 36159.71, -116852.93, -136593.41, -99788.98, -151832.06, -141259.83, -157862.13, -146684.28, 0.00, 0.00, 0.00
37, -6331.73, 5224.56, -6453.19, -6484.80, -173393.63, -163051.88, -165991.38, -170819.45, 36159.71, -116852.93, -136593.41, -99788.98, -151832.06, -141259.83, -157862.13, -146684.28, 0.00, 0.00, 0.00
38, -6331.73, 5224.56, -6453.19, -6484.80, -173393.63, -163051.88, -165991.38, -170819.45, 36156.32, -116846.76, -136589.42, -99780.04, -151830.64, -141261.52, -157864.70, -146686.80, 0.12, -0.09, 0.99
39, -6330.19, 5223.20, -6451.76, -6483.37, -173391.55, -163048.77, -165988.08, -170817.33, 36156.32, -116846.76, -136589.42, -99780.04, -151830.64, -141261.52, -157864.70, -146686.80, 0.00, 0.00, 0.00
40, -6330.19, 5223.20, -6451.76, -6483.37, -173391.55, -163048.77, -165988.08, -170817.33, 36135.19, -116836.12, -136581.11, -99766.59, -151824.27, -141257.56, -157861.45, -146682.73, 0.00, 0.00, 0.00
41, -6330.19, 5223.16, -6451.61, -6483.15, -173390.61, -163046.88, -165986.02, -170816.55, 36135.19, -116836.12, -136581.11, -99766.59, -151824.27, -141257.56, -157861.45, -146682.73, 0.00, 0.00, 0.00
42, -6330.19, 5223.16, -6451.61, -6483.15, -173390.61, -163046.88, -165986.02, -170816.55, 36132.84, -116830.51, -136577.72, -99758.23, -151823.45, -141259.78, -157864.69, -146685.86, 0.00, 0.00, 0.00
43, -6328.18, 5221.39, -6449.66, -6481.38, -173388.38, -163043.41, -165982.50, -170814.08, 36132.84, -116830.51, -136577.72, -99758.23, -151823.45, -141259.78, -157864.69, -146685.86, 0.00, 0.00, 0.00
44, -6328.18, 5221.39, -6449.66, -6481.38, -173388.38, -163043.41, -165982.50, -170814.08, 36108.84, -116817.09, -136566.69, -99741.95, -151814.42, -141253.08, -157858.67, -146679.08, 0.00, 0.00, 0.00
45, -6326.84, 5219.60, -6448.21, -6479.79, -173386.25, -163040.23, -165979.05, -170811.94, 36108.84, -116817.09, -136566.69, -99741.95, -151814.42, -141253.08, -157858.67, -146679.08, 0.00, 0.00, 0.00
46, -6326.84, 5219.60, -6448.21, -6479.79, -173386.25, -163040.23, -165979.05, -170811.94, 36107.21, -116812.72, -136564.55, -99734.87, -151814.70, -141256.41, -157862.98, -146683.36, 0.00, 0.00, 0.00
47, -6327.89, 5221.01, -6449.39, -6480.82, -173386.86, -163039.81, -165978.53, -170812.58, 36107.21, -116812.72, -136564.55, -99734.87, -151814.70, -141256.41, -157862.98, -146683.36, 0.00, 0.00, 0.00
48, -6327.89, 5221.01, -6449.39, -6480.82, -173386.86, -163039.81, -165978.53, -170812.58, 36087.52, -116802.88, -136557.27, -99722.26, -151809.36, -141253.45, -157860.78, -146680.19, 0.12, -0.09, 0.99
49, -6329.37, 5222.31, -6450.74, -6482.34, -173387.64, -163039.50, -165977.91, -170813.17, 36087.52, -116802.88, -136557.27, -99722.26, -151809.36, -141253.45, -157860.78, -146680.19, 0.00, 0.00, 0.00
50, -6329.37, 5222.31, -6450.74, -6482.34, -173387.64, -163039.50, -165977.91, -170813.17, 36086.69, -116799.82, -136556.39, -99716.36, -151810.89, -141258.08, -157866.45, -146685.73, 0.00, 0.00, 0.00
51, -6329.61, 5223.13, -6451.21, -6482.83, -173387.53, -163038.36, -165976.69, -170813.25, 36086.69, -116799.82, -136556.39, -99716.36, -151810.89, -141258.08, -157866.45, -146685.73, 0.00, 0.00, 0.00
52, -6329.61, 5223.13, -6451.21, -6482.83, -173387.53, -163038.36, -165976.69, -170813.25, 36066.17, -116788.64, -136547.42, -99702.27, -151804.11, -141253.61, -157862.75, -146681.23, 0.00, 0.00, 0.00
53, -6328.90, 5221.95, -6450.51, -6482.10, -173386.05, -163035.83, -165973.98, -170811.56, 36066.17, -116788.64, -136547.42, -99702.27, -151804.11, -141253.61, -157862.75, -146681.23, 0.00, 0.00, 0.00
54, -6328.90, 5221.95, -6450.51, -6482.10, -173386.05, -163035.83, -165973.98, -170811.56, 36061.68, -116783.05, -136544.19, -99693.94, -151803.16, -141255.73, -157865.84, -146684.03, 0.00, 0.00, 0.00
55, -6330.77, 5224.38, -6452.46, -6484.08, -173387.48, -163036.23, -165974.38, -170813.34, 36061.68, -116783.05, -136544.19, -99693.94, -151803.16, -141255.73, -157865.84, -146684.03, 0.00, 0.00, 0.00
56, -6330.77, 5224.38, -6452.46, -6484.08, -173387.48, -163036.23, -165974.38, -170813.34, 36047.02, -116776.28, -136539.73, -99684.30, -151800.89, -141255.94, -157866.72, -146684.33, 0.00, 0.00, 0.00
57, -6331.71, 5225.06, -6453.42, -6485.07, -173387.75, -163035.41, -165973.23, -170813.34, 36047.02, -116776.28, -136539.73, -99684.30, -151800.89, -141255.94, -157866.72, -146684.33, 0.00, 0.00, 0.00
58, -6331.71, 5225.06, -6453.42, -6485.07, -173387.75, -163035.41, -165973.23, -170813.34, 36041.09, -116770.60, -136536.05, -99675.70, -151799.67, -141257.66, -157869.41, -146686.78, 0.13, -0.09, 0.99
59, -6332.76, 5226.53, -6454.40, -6485.98, -173388.25, -163034.89, -165972.67, -170814.08, 36041.09, -116770.60, -136536.05, -99675.70, -151799.67, -141257.66, -157869.41, -146686.78, 0.00, 0.00, 0.00
60, -6332.76, 5226.53, -6454.40, -6485.98, -173388.25, -163034.89, -165972.67, -170814.08, 36024.77, -116760.81, -136528.88, -99663.12, -151794.56, -141254.97, -157867.59, -146684.34, 0.00, 0.00, 0.00
61, -6330.46, 5223.63, -6452.03, -6483.66, -173385.19, -163030.80, -165968.25, -170810.73, 36024.77, -116760.81, -136528.88, -99663.12, -151794.56, -141254.97, -157867.59, -146684.34, 0.00, 0.00, 0.00
62, -6330.46, 5223.63, -6452.03, -6483.66, -173385.19, -163030.80, -165968.25, -170810.73, 36015.36, -116753.26, -136523.47, -99652.74, -151791.45, -141254.89, -157868.23, -146684.72, 0.00, 0.00, 0.00
63, -6332.74, 5226.31, -6454.22, -6485.87, -173386.88, -163031.52, -165968.84, -170812.77, 36015.36, -116753.26, -136523.47, -99652.74, -151791.45, -141254.89, -157868.23, -146684.72, 0.00, 0.00, 0.00
64, -6332.74, 5226.31, -6454.22, -6485.87, -173386.88, -163031.52, -165968.84, -170812.77, 36003.05, -116745.59, -136518.11, -99642.22, -151788.44, -141254.34, -157868.67, -146684.50, 0.00, 0.00, 0.00
65, -6328.20, 5221.41, -6449.60, -6481.33, -173381.72, -163025.02, -165962.33, -170807.23, 36003.05, -116745.59, -136518.11, -99642.22, -151788.44, -141254.34, -157868.67, -146684.50, 0.00, 0.00, 0.00
66, -6328.20, 5221.41, -6449.60, -6481.33, -173381.72, -163025.02, -165962.33, -170807.23, 35987.65, -116733.84, -136508.53, -99627.55, -151781.11, -141249.88, -157864.98, -146680.38, 0.00, 0.00, 0.00
67, -6328.72, 5222.44, -6450.20, -6481.85, -173381.77, -163024.09, -165961.23, -170807.64, 35987.65, -116733.84, -136508.53, -99627.55, -151781.11, -141249.88, -157864.98, -146680.38, 0.12, -0.09, 1.00
68, -6328.72, 5222.44, -6450.20, -6481.85, -173381.77, -163024.09, -165961.23, -170807.64, 35978.42, -116727.65, -136504.61, -99618.50, -151779.47, -141250.81, -157866.92, -146681.84, 0.00, 0.00, 0.00
69, -6328.78, 5222.17, -6450.38, -6482.01, -173381.22, -163022.48, -165959.33, -170806.66, 35978.42, -116727.65, -136504.61, -99618.50, -151779.47, -141250.81, -157866.92, -146681.84, 0.00, 0.00, 0.00
70, -6328.78, 5222.17, -6450.38, -6482.01, -173381.22, -163022.48, -165959.33, -170806.66, 35966.30, -116720.83, -136500.17, -99608.96, -151777.19, -141251.28, -157868.06, -146682.48, 0.00, 0.00, 0.00
71, -6331.35, 5225.10, -6452.88, -6484.58, -173383.19, -163023.42, -165960.25, -170809.00, 35966.30, -116720.83, -136500.17, -99608.96, -151777.19, -141251.28, -157868.06, -146682.48, 0.00, 0.00, 0.00
72, -6331.35, 5225.10, -6452.88, -6484.58, -173383.19, -163023.42, -165960.25, -170809.00, 35959.30, -116715.06, -136496.59, -99600.33, -151776.03, -141252.89, -157870.64, -146684.66, 0.00, 0.00, 0.00
73, -6330.82, 5224.47, -6452.52, -6484.22, -173382.16, -163021.44, -165957.92, -170807.64, 35959.30, -116715.06, -136496.59, -99600.33, -151776.03, -141252.89, -157870.64, -146684.66, 0.00, 0.00, 0.00
74, -6330.82, 5224.47, -6452.52, -6484.22, -173382.16, -163021.44, -165957.92, -170807.64, 35942.90, -116705.63, -136489.56, -99588.09, -151771.00, -141250.44, -157868.98, -146682.36, 0.00, 0.00, 0.00
75, -6331.62, 5225.57, -6453.31, -6484.84, -173382.44, -163020.56, -165956.98, -170808.11, 35942.90, -116705.63, -136489.56, -99588.09, -151771.00, -141250.44, -157868.98, -146682.36, 0.00, 0.00, 0.00
76, -6331.62, 5225.57, -6453.31, -6484.84, -173382.44, -163020.56, -165956.98, -170808.11, 35937.31, -116699.77, -136486.00, -99579.34, -151769.77, -141252.17, -157871.64, -146684.86, 0.00, 0.00, 0.00
77, -6329.30, 5222.98, -6451.21, -6482.74, -173379.61, -163016.61, -165952.88, -170804.98, 35937.31, -116699.77, -136486.00, -99579.34, -151769.77, -141252.17, -157871.64, -146684.86, 0.13, -0.09, 0.99
78, -6329.30, 5222.98, -6451.21, -6482.74, -173379.61, -163016.61, -165952.88, -170804.98, 35916.37, -116687.34, -136475.86, -99563.96, -151761.80, -141246.59, -157866.70, -146679.31, 0.00, 0.00, 0.00
79, -6327.94, 5221.90, -6449.75, -6481.31, -173377.52, -163013.66, -165949.73, -170803.22, 35916.37, -116687.34, -136475.86, -99563.96, -151761.80, -141246.59, -157866.70, -146679.31, 0.00, 0.00, 0.00
