%OpenBCI Raw EEG Data
%
%Sample Rate = 250.0 Hz
%First Column = SampleIndex
%Other Columns = EEG data in microvolts followed by Accel Data (in G) interleaved with Aux Data
0, -187500.02, 91868.80, -187500.02, -187500.02, -187500.02, -187500.02, -146056.33, -187500.02, 0.07, 0.00, 0.00
1, -187500.02, 91869.45, -187500.02, -187500.02, -187500.02, -187500.02, -146058.28, -187500.02, 0.07, 0.00, 0.00
2, -187500.02, 91867.09, -187500.02, -187500.02, -187500.02, -187500.02, -146058.67, -187500.02, 0.07, 0.00, 0.00
3, -187500.02, 91855.81, -187500.02, -187500.02, -187500.02, -187500.02, -146056.53, -187500.02, 0.07, 0.00, 0.00
4, -187500.02, 91849.30, -187500.02, -187500.02, -187500.02, -187500.02, -146057.47, -187500.02, 0.07, 0.00, 0.00
5, -187500.02, 91848.55, -187500.02, -187500.02, -187500.02, -187500.02, -146058.97, -187500.02, 0.07, 0.00, 0.00
6, -187500.02, 91847.02, -187500.02, -187500.02, -187500.02, -187500.02, -146059.17, -187500.02, 0.07, 0.00, 0.00
7, -187500.02, 91833.99, -187500.02, -187500.02, -187500.02, -187500.02, -146054.41, -187500.02, 0.07, 0.00, 0.00
8, -187500.02, 91823.71, -187500.02, -187500.02, -187500.02, -187500.02, -146052.11, -187500.02, 0.07, 0.00, 0.00
9, -187500.02, 91820.47, -187500.02, -187500.02, -187500.02, -187500.02, -146051.91, -187500.02, 0.07, 0.00, 0.00
10, -187500.02, 91822.84, -187500.02, -187500.02, -187500.02, -187500.02, -146055.22, -187500.02, 0.07, 0.00, 0.00
11, -187500.02, 91818.19, -187500.02, -187500.02, -187500.02, -187500.02, -146058.08, -187500.02, 0.07, 0.00, 0.00
12, -187500.02, 91804.13, -187500.02, -187500.02, -187500.02, -187500.02, -146052.86, -187500.02, 0.06, 0.00, 0.00
13, -187500.02, 91800.53, -187500.02, -187500.02, -187500.02, -187500.02, -146053.22, -187500.02, 0.06, 0.00, 0.00
14, -187500.02, 91802.48, -187500.02, -187500.02, -187500.02, -187500.02, -146055.92, -187500.02, 0.06, 0.00, 0.00
15, -187500.02, 91798.03, -187500.02, -187500.02, -187500.02, -187500.02, -146057.61, -187500.02, 0.06, 0.00, 0.00
16, -187500.02, 91785.73, -187500.02, -187500.02, -187500.02, -187500.02, -146054.63, -187500.02, 0.06, 0.00, 0.00
17, -187500.02, 91777.35, -187500.02, -187500.02, -187500.02, -187500.02, -146051.14, -187500.02, 0.06, 0.00, 0.00
18, -187500.02, 91776.62, -187500.02, -187500.02, -187500.02, -187500.02, -146051.14, -187500.02, 0.06, 0.00, 0.00
19, -187500.02, 91773.71, -187500.02, -187500.02, -187500.02, -187500.02, -146052.94, -187500.02, 0.06, 0.00, 0.00
20, -187500.02, 91760.59, -187500.02, -187500.02, -187500.02, -187500.02, -146049.38, -187500.02, 0.06, 0.00, 0.00
21, -187500.02, 91755.63, -187500.02, -187500.02, -187500.02, -187500.02, -146050.30, -187500.02, 0.06, 0.00, 0.00
22, -187500.02, 91759.07, -187500.02, -187500.02, -187500.02, -187500.02, -146054.78, -187500.02, 0.06, 0.00, 0.00
23, -187500.02, 91755.70, -187500.02, -187500.02, -187500.02, -187500.02, -146054.97, -187500.02, 0.06, 0.00, 0.00
24, -187500.02, 91744.61, -187500.02, -187500.02, -187500.02, -187500.02, -146053.05, -187500.02, 0.06, 0.00, 0.00
25, -187500.02, 91740.34, -187500.02, -187500.02, -187500.02, -187500.02, -146055.59, -187500.02, 0.06, 0.00, 0.00
26, -187500.02, 91739.49, -187500.02, -187500.02, -187500.02, -187500.02, -146056.33, -187500.02, 0.06, 0.00, 0.00
27, -187500.02, 91738.44, -187500.02, -187500.02, -187500.02, -187500.02, -146057.61, -187500.02, 0.06, 0.00, 0.00
28, -187500.02, 91727.69, -187500.02, -187500.02, -187500.02, -187500.02, -146055.92, -187500.02, 0.06, 0.00, 0.00
29, -187500.02, 91716.55, -187500.02, -187500.02, -187500.02, -187500.02, -146052.48, -187500.02, 0.06, 0.00, 0.00
30, -187500.02, 91711.53, -187500.02, -187500.02, -187500.02, -187500.02, -146049.91, -187500.02, 0.06, 0.00, 0.00
31, -187500.02, 91710.39, -187500.02, -187500.02, -187500.02, -187500.02, -146050.09, -187500.02, 0.06, 0.00, 0.00
32, -187500.02, 91700.48, -187500.02, -187500.02, -187500.02, -187500.02, -146047.97, -187500.02, 0.06, 0.00, 0.00
33, -187500.02, 91690.54, -187500.02, -187500.02, -187500.02, -187500.02, -146046.56, -187500.02, 0.06, 0.00, 0.00
34, -187500.02, 91687.97, -187500.02, -187500.02, -187500.02, -187500.02, -146047.33, -187500.02, 0.06, 0.00, 0.00
35, -187500.02, 91687.84, -187500.02, -187500.02, -187500.02, -187500.02, -146047.95, -187500.02, 0.06, 0.00, 0.00
36, -187500.02, 91680.91, -187500.02, -187500.02, -187500.02, -187500.02, -146048.02, -187500.02, 0.06, 0.00, 0.00
37, -187500.02, 91671.59, -187500.02, -187500.02, -187500.02, -187500.02, -146047.80, -187500.02, 0.06, 0.00, 0.00
38, -187500.02, 91665.46, -187500.02, -187500.02, -187500.02, -187500.02, -146045.98, -187500.02, 0.06, 0.00, 0.00
39, -187500.02, 91666.18, -187500.02, -187500.02, -187500.02, -187500.02, -146047.44, -187500.02, 0.06, 0.00, 0.00
40, -187500.02, 91661.73, -187500.02, -187500.02, -187500.02, -187500.02, -146048.44, -187500.02, 0.06, 0.00, 0.00
41, -187500.02, 91650.66, -187500.02, -187500.02, -187500.02, -187500.02, -146046.61, -187500.02, 0.07, 0.00, 0.00
42, -187500.02, 91645.19, -187500.02, -187500.02, -187500.02, -187500.02, -146046.34, -187500.02, 0.07, 0.00, 0.00
43, -187500.02, 91645.39, -187500.02, -187500.02, -187500.02, -187500.02, -146047.48, -187500.02, 0.07, 0.00, 0.00
44, -187500.02, 91644.12, -187500.02, -187500.02, -187500.02, -187500.02, -146050.63, -187500.02, 0.07, 0.00, 0.00
45, -187500.02, 91634.04, -187500.02, -187500.02, -187500.02, -187500.02, -146050.08, -187500.02, 0.07, 0.00, 0.00
46, -187500.02, 91624.38, -187500.02, -187500.02, -187500.02, -187500.02, -146046.67, -187500.02, 0.06, 0.00, 0.00
47, -187500.02, 91624.89, -187500.02, -187500.02, -187500.02, -187500.02, -146048.42, -187500.02, 0.07, 0.00, 0.00
48, -187500.02, 91622.08, -187500.02, -187500.02, -187500.02, -187500.02, -146048.39, -187500.02, 0.07, 0.00, 0.00
49, -187500.02, 91610.21, -187500.02, -187500.02, -187500.02, -187500.02, -146045.64, -187500.02, 0.07, 0.00, 0.00
50, -187500.02, 91600.48, -187500.02, -187500.02, -187500.02, -187500.02, -146043.08, -187500.02, 0.07, 0.00, 0.00
51, -187500.02, 91600.17, -187500.02, -187500.02, -187500.02, -187500.02, -146044.77, -187500.02, 0.07, 0.00, 0.00
52, -187500.02, 91599.77, -187500.02, -187500.02, -187500.02, -187500.02, -146046.38, -187500.02, 0.07, 0.00, 0.00
53, -187500.02, 91588.64, -187500.02, -187500.02, -187500.02, -187500.02, -146043.81, -187500.02, 0.07, 0.00, 0.00
54, -187500.02, 91579.97, -187500.02, -187500.02, -187500.02, -187500.02, -146043.03, -187500.02, 0.07, 0.00, 0.00
55, -187500.02, 91577.15, -187500.02, -187500.02, -187500.02, -187500.02, -146043.09, -187500.02, 0.07, 0.00, 0.00
56, -187500.02, 91581.20, -187500.02, -187500.02, -187500.02, -187500.02, -146048.17, -187500.02, 0.07, 0.00, 0.00
57, -187500.02, 91573.06, -187500.02, -187500.02, -187500.02, -187500.02, -146047.66, -187500.02, 0.07, 0.00, 0.00
58, -187500.02, 91559.29, -187500.02, -187500.02, -187500.02, -187500.02, -146042.47, -187500.02, 0.07, 0.00, 0.00
59, -187500.02, 91553.03, -187500.02, -187500.02, -187500.02, -187500.02, -146040.02, -187500.02, 0.07, 0.00, 0.00
60, -187500.02, 91556.70, -187500.02, -187500.02, -187500.02, -187500.02, -146044.53, -187500.02, 0.07, 0.00, 0.00
61, -187500.02, 91549.70, -187500.02, -187500.02, -187500.02, -187500.02, -146043.97, -187500.02, 0.07, 0.00, 0.00
62, -187500.02, 91539.31, -187500.02, -187500.02, -187500.02, -187500.02, -146042.81, -187500.02, 0.07, 0.00, 0.00
63, -187500.02, 91535.27, -187500.02, -187500.02, -187500.02, -187500.02, -146043.30, -187500.02, 0.07, 0.00, 0.00
64, -187500.02, 91537.16, -187500.02, -187500.02, -187500.02, -187500.02, -146046.00, -187500.02, 0.07, 0.00, 0.00
65, -187500.02, 91533.81, -187500.02, -187500.02, -187500.02, -187500.02, -146047.67, -187500.02, 0.07, 0.00, 0.00
66, -187500.02, 91522.45, -187500.02, -187500.02, -187500.02, -187500.02, -146045.69, -187500.02, 0.07, 0.00, 0.00
67, -187500.02, 91515.77, -187500.02, -187500.02, -187500.02, -187500.02, -146044.64, -187500.02, 0.07, 0.00, 0.00
68, -187500.02, 91515.62, -187500.02, -187500.02, -187500.02, -187500.02, -146045.52, -187500.02, 0.08, 0.00, 0.00
69, -187500.02, 91510.20, -187500.02, -187500.02, -187500.02, -187500.02, -146043.97, -187500.02, 0.08, 0.00, 0.00
70, -187500.02, 91499.63, -187500.02, -187500.02, -187500.02, -187500.02, -146042.84, -187500.02, 0.08, 0.00, 0.00
71, -187500.02, 91491.74, -187500.02, -187500.02, -187500.02, -187500.02, -146041.36, -187500.02, 0.07, 0.00, 0.00
72, -187500.02, 91492.57, -187500.02, -187500.02, -187500.02, -187500.02, -146043.70, -187500.02, 0.07, 0.00, 0.00
73, -187500.02, 91492.46, -187500.02, -187500.02, -187500.02, -187500.02, -146046.16, -187500.02, 0.07, 0.00, 0.00
74, -187500.02, 91482.54, -187500.02, -187500.02, -187500.02, -187500.02, -146045.17, -187500.02, 0.08, 0.00, 0.00
75, -187500.02, 91474.89, -187500.02, -187500.02, -187500.02, -187500.02, -146045.11, -187500.02, 0.08, 0.00, 0.00
76, -187500.02, 91472.77, -187500.02, -187500.02, -187500.02, -187500.02, -146045.42, -187500.02, 0.08, 0.00, 0.00
77, -187500.02, 91472.27, -187500.02, -187500.02, -187500.02, -187500.02, -146046.58, -187500.02, 0.08, 0.00, 0.00
78, -187500.02, 91464.20, -187500.02, -187500.02, -187500.02, -187500.02, -146046.56, -187500.02, 0.08, 0.00, 0.00
79, -187500.02, 91453.23, -187500.02, -187500.02, -187500.02, -187500.02, -146043.72, -187500.02, 0.08, 0.00, 0.00
80, -187500.02, 91445.95, -187500.02, -187500.02, -187500.02, -187500.02, -146039.52, -187500.02, 0.08, 0.00, 0.00
81, -187500.02, 91446.55, -187500.02, -187500.02, -187500.02, -187500.02, -146041.16, -187500.02, 0.08, 0.00, 0.00
82, -187500.02, 91440.13, -187500.02, -187500.02, -187500.02, -187500.02, -146041.83, -187500.02, 0.09, 0.00, 0.00
83, -187500.02, 91428.27, -187500.02, -187500.02, -187500.02, -187500.02, -146038.78, -187500.02, 0.09, 0.00, 0.00
84, -187500.02, 91423.95, -187500.02, -187500.02, -187500.02, -187500.02, -146038.56, -187500.02, 0.09, 0.00, 0.00
85, -187500.02, 91425.09, -187500.02, -187500.02, -187500.02, -187500.02, -146040.50, -187500.02, 0.09, 0.00, 0.00
86, -187500.02, 91419.01, -187500.02, -187500.02, -187500.02, -187500.02, -146040.30, -187500.02, 0.09, 0.00, 0.00
87, -187500.02, 91407.30, -187500.02, -187500.02, -187500.02, -187500.02, -146037.80, -187500.02, 0.09, 0.00, 0.00
88, -187500.02, 91403.95, -187500.02, -187500.02, -187500.02, -187500.02, -146039.39, -187500.02, 0.09, 0.00, 0.00
89, -187500.02, 91405.63, -187500.02, -187500.02, -187500.02, -187500.02, -146041.91, -187500.02, 0.09, 0.00, 0.00
90, -187500.02, 91400.05, -187500.02, -187500.02, -187500.02, -187500.02, -146040.86, -187500.02, 0.09, 0.00, 0.00
91, -187500.02, 91385.93, -187500.02, -187500.02, -187500.02, -187500.02, -146036.17, -187500.02, 0.09, 0.00, 0.00
92, -187500.02, 91376.25, -187500.02, -187500.02, -187500.02, -187500.02, -146032.64, -187500.02, 0.09, 0.00, 0.00
93, -187500.02, 91377.05, -187500.02, -187500.02, -187500.02, -187500.02, -146034.72, -187500.02, 0.08, 0.00, 0.00
94, -187500.02, 91377.98, -187500.02, -187500.02, -187500.02, -187500.02, -146038.77, -187500.02, 0.08, 0.00, 0.00
95, -187500.02, 91366.98, -187500.02, -187500.02, -187500.02, -187500.02, -146036.84, -187500.02, 0.08, 0.00, 0.00
96, -187500.02, 91356.07, -187500.02, -187500.02, -187500.02, -187500.02, -146032.88, -187500.02, 0.08, 0.00, 0.00
97, -187500.02, 91357.68, -187500.02, -187500.02, -187500.02, -187500.02, -146036.30, -187500.02, 0.08, 0.00, 0.00
98, -187500.02, 91358.30, -187500.02, -187500.02, -187500.02, -187500.02, -146039.16, -187500.02, 0.08, 0.00, 0.00
99, -187500.02, 91349.81, -187500.02, -187500.02, -187500.02, -187500.02, -146039.50, -187500.02, 0.07, 0.00, 0.00
100, -187500.02, 91336.73, -187500.02, -187500.02, -187500.02, -187500.02, -146034.14, -187500.02, 0.07, 0.00, 0.00
101, -187500.02, 91332.06, -187500.02, -187500.02, -187500.02, -187500.02, -146032.13, -187500.02, 0.07, 0.00, 0.00
102, -187500.02, 91331.33, -187500.02, -187500.02, -187500.02, -187500.02, -146032.75, -187500.02, 0.07, 0.00, 0.00
103, -187500.02, 91326.12, -187500.02, -187500.02, -187500.02, -187500.02, -146035.34, -187500.02, 0.07, 0.00, 0.00
104, -187500.02, 91315.84, -187500.02, -187500.02, -187500.02, -187500.02, -146033.42, -187500.02, 0.07, 0.00, 0.00
105, -187500.02, 91311.30, -187500.02, -187500.02, -187500.02, -187500.02, -146032.34, -187500.02, 0.06, 0.00, 0.00
106, -187500.02, 91312.86, -187500.02, -187500.02, -187500.02, -187500.02, -146034.80, -187500.02, 0.06, 0.00, 0.00
107, -187500.02, 91306.16, -187500.02, -187500.02, -187500.02, -187500.02, -146034.83, -187500.02, 0.06, 0.00, 0.00
108, -187500.02, 91294.20, -187500.02, -187500.02, -187500.02, -187500.02, -146031.92, -187500.02, 0.06, 0.00, 0.00
109, -187500.02, 91289.93, -187500.02, -187500.02, -187500.02, -187500.02, -146032.23, -187500.02, 0.06, 0.00, 0.00
110, -187500.02, 91288.74, -187500.02, -187500.02, -187500.02, -187500.02, -146031.88, -187500.02, 0.06, 0.00, 0.00
111, -187500.02, 91285.02, -187500.02, -187500.02, -187500.02, -187500.02, -146033.39, -187500.02, 0.05, 0.00, 0.00
112, -187500.02, 91273.26, -187500.02, -187500.02, -187500.02, -187500.02, -146030.80, -187500.02, 0.05, 0.00, 0.00
113, -187500.02, 91266.13, -187500.02, -187500.02, -187500.02, -187500.02, -146029.08, -187500.02, 0.05, 0.00, 0.00
114, -187500.02, 91267.96, -187500.02, -187500.02, -187500.02, -187500.02, -146031.86, -187500.02, 0.05, 0.00, 0.00
115, -187500.02, 91268.90, -187500.02, -187500.02, -187500.02, -187500.02, -146036.97, -187500.02, 0.05, 0.00, 0.00
116, -187500.02, 91256.00, -187500.02, -187500.02, -187500.02, -187500.02, -146033.58, -187500.02, 0.05, 0.00, 0.00
117, -187500.02, 91245.25, -187500.02, -187500.02, -187500.02, -187500.02, -146029.02, -187500.02, 0.05, 0.00, 0.00
118, -187500.02, 91246.10, -187500.02, -187500.02, -187500.02, -187500.02, -146031.31, -187500.02, 0.05, 0.00, 0.00
119, -187500.02, 91242.63, -187500.02, -187500.02, -187500.02, -187500.02, -146030.83, -187500.02, 0.05, 0.00, 0.00
120, -187500.02, 91231.19, -187500.02, -187500.02, -187500.02, -187500.02, -146028.28, -187500.02, 0.05, 0.00, 0.00
121, -187500.02, 91223.14, -187500.02, -187500.02, -187500.02, -187500.02, -146027.25, -187500.02, 0.05, 0.00, 0.00
122, -187500.02, 91219.95, -187500.02, -187500.02, -187500.02, -187500.02, -146026.38, -187500.02, 0.05, 0.00, 0.00
123, -187500.02, 91220.39, -187500.02, -187500.02, -187500.02, -187500.02, -146028.80, -187500.02, 0.05, 0.00, 0.00
124, -187500.02, 91211.01, -187500.02, -187500.02, -187500.02, -187500.02, -146027.70, -187500.02, 0.05, 0.00, 0.00
125, -187500.02, 91200.19, -187500.02, -187500.02, -187500.02, -187500.02, -146024.91, -187500.02, 0.05, 0.00, 0.00
126, -187500.02, 91197.69, -187500.02, -187500.02, -187500.02, -187500.02, -146025.23, -187500.02, 0.05, 0.00, 0.00
127, -187500.02, 91199.31, -187500.02, -187500.02, -187500.02, -187500.02, -146028.13, -187500.02, 0.05, 0.00, 0.00
128, -187500.02, 91193.28, -187500.02, -187500.02, -187500.02, -187500.02, -146029.34, -187500.02, 0.05, 0.00, 0.00
129, -187500.02, 91181.97, -187500.02, -187500.02, -187500.02, -187500.02, -146026.67, -187500.02, 0.05, 0.00, 0.00
130, -187500.02, 91177.28, -187500.02, -187500.02, -187500.02, -187500.02, -146025.70, -187500.02, 0.05, 0.00, 0.00
131, -187500.02, 91177.73, -187500.02, -187500.02, -187500.02, -187500.02, -146027.05, -187500.02, 0.05, 0.00, 0.00
132, -187500.02, 91171.51, -187500.02, -187500.02, -187500.02, -187500.02, -146027.23, -187500.02, 0.05, 0.00, 0.00
133, -187500.02, 91160.91, -187500.02, -187500.02, -187500.02, -187500.02, -146025.75, -187500.02, 0.05, 0.00, 0.00
134, -187500.02, 91155.98, -187500.02, -187500.02, -187500.02, -187500.02, -146025.64, -187500.02, 0.05, 0.00, 0.00
135, -187500.02, 91157.98, -187500.02, -187500.02, -187500.02, -187500.02, -146028.52, -187500.02, 0.05, 0.00, 0.00
136, -187500.02, 91153.92, -187500.02, -187500.02, -187500.02, -187500.02, -146029.31, -187500.02, 0.06, 0.00, 0.00
137, -187500.02, 91139.81, -187500.02, -187500.02, -187500.02, -187500.02, -146024.41, -187500.02, 0.06, 0.00, 0.00
138, -187500.02, 91131.44, -187500.02, -187500.02, -187500.02, -187500.02, -146021.69, -187500.02, 0.06, 0.00, 0.00
139, -187500.02, 91134.05, -187500.02, -187500.02, -187500.02, -187500.02, -146025.53, -187500.02, 0.06, 0.00, 0.00
140, -187500.02, 91133.34, -187500.02, -187500.02, -187500.02, -187500.02, -146028.69, -187500.02, 0.06, 0.00, 0.00
141, -187500.02, 91121.33, -187500.02, -187500.02, -187500.02, -187500.02, -146025.84, -187500.02, 0.06, 0.00, 0.00
142, -187500.02, 91112.05, -187500.02, -187500.02, -187500.02, -187500.02, -146023.06, -187500.02, 0.06, 0.00, 0.00
143, -187500.02, 91112.39, -187500.02, -187500.02, -187500.02, -187500.02, -146025.28, -187500.02, 0.06, 0.00, 0.00
144, -187500.02, 91109.15, -187500.02, -187500.02, -187500.02, -187500.02, -146024.36, -187500.02, 0.06, 0.00, 0.00
145, -187500.02, 91097.46, -187500.02, -187500.02, -187500.02, -187500.02, -146021.30, -187500.02, 0.06, 0.00, 0.00
146, -187500.02, 91086.87, -187500.02, -187500.02, -187500.02, -187500.02, -146018.08, -187500.02, 0.06, 0.00, 0.00
147, -187500.02, 91088.27, -187500.02, -187500.02, -187500.02, -187500.02, -146022.09, -187500.02, 0.06, 0.00, 0.00
148, -187500.02, 91090.66, -187500.02, -187500.02, -187500.02, -187500.02, -146026.27, -187500.02, 0.06, 0.00, 0.00
149, -187500.02, 91081.19, -187500.02, -187500.02, -187500.02, -187500.02, -146024.77, -187500.02, 0.06, 0.00, 0.00
150, -187500.02, 91068.34, -187500.02, -187500.02, -187500.02, -187500.02, -146020.05, -187500.02, 0.06, 0.00, 0.00
151, -187500.02, 91064.27, -187500.02, -187500.02, -187500.02, -187500.02, -146019.31, -187500.02, 0.06, 0.00, 0.00
152, -187500.02, 91066.50, -187500.02, -187500.02, -187500.02, -187500.02, -146022.53, -187500.02, 0.06, 0.00, 0.00
153, -187500.02, 91060.55, -187500.02, -187500.02, -187500.02, -187500.02, -146023.58, -187500.02, 0.06, 0.00, 0.00
154, -187500.02, 91053.67, -187500.02, -187500.02, -187500.02, -187500.02, -146025.53, -187500.02, 0.06, 0.00, 0.00
155, -187500.02, 91049.31, -187500.02, -187500.02, -187500.02, -187500.02, -146025.31, -187500.02, 0.06, 0.00, 0.00
156, -187500.02, 91049.90, -187500.02, -187500.02, -187500.02, -187500.02, -146026.75, -187500.02, 0.07, 0.00, 0.00
157, -187500.02, 91045.72, -187500.02, -187500.02, -187500.02, -187500.02, -146028.39, -187500.02, 0.07, 0.00, 0.00
158, -187500.02, 91035.05, -187500.02, -187500.02, -187500.02, -187500.02, -146026.88, -187500.02, 0.07, 0.00, 0.00
159, -187500.02, 91026.38, -187500.02, -187500.02, -187500.02, -187500.02, -146023.25, -187500.02, 0.06, 0.00, 0.00
160, -187500.02, 91027.68, -187500.02, -187500.02, -187500.02, -187500.02, -146025.44, -187500.02, 0.06, 0.00, 0.00
161, -187500.02, 91023.79, -187500.02, -187500.02, -187500.02, -187500.02, -146025.95, -187500.02, 0.06, 0.00, 0.00
162, -187500.02, 91014.36, -187500.02, -187500.02, -187500.02, -187500.02, -146025.81, -187500.02, 0.06, 0.00, 0.00
163, -187500.02, 91005.15, -187500.02, -187500.02, -187500.02, -187500.02, -146022.73, -187500.02, 0.07, 0.00, 0.00
164, -187500.02, 91003.29, -187500.02, -187500.02, -187500.02, -187500.02, -146022.42, -187500.02, 0.06, 0.00, 0.00
165, -187500.02, 91002.46, -187500.02, -187500.02, -187500.02, -187500.02, -146024.88, -187500.02, 0.06, 0.00, 0.00
166, -187500.02, 90991.91, -187500.02, -187500.02, -187500.02, -187500.02, -146023.36, -187500.02, 0.06, 0.00, 0.00
167, -187500.02, 90983.76, -187500.02, -187500.02, -187500.02, -187500.02, -146022.00, -187500.02, 0.06, 0.00, 0.00
168, -187500.02, 90982.51, -187500.02, -187500.02, -187500.02, -187500.02, -146022.75, -187500.02, 0.06, 0.00, 0.00
169, -187500.02, 90981.21, -187500.02, -187500.02, -187500.02, -187500.02, -146023.63, -187500.02, 0.06, 0.00, 0.00
170, -187500.02, 90971.26, -187500.02, -187500.02, -187500.02, -187500.02, -146022.16, -187500.02, 0.06, 0.00, 0.00
171, -187500.02, 90961.78, -187500.02, -187500.02, -187500.02, -187500.02, -146020.45, -187500.02, 0.06, 0.00, 0.00
172, -187500.02, 90960.45, -187500.02, -187500.02, -187500.02, -187500.02, -146022.06, -187500.02, 0.06, 0.00, 0.00
173, -187500.02, 90959.93, -187500.02, -187500.02, -187500.02, -187500.02, -146022.88, -187500.02, 0.06, 0.00, 0.00
174, -187500.02, 90953.00, -187500.02, -187500.02, -187500.02, -187500.02, -146023.47, -187500.02, 0.06, 0.00, 0.00
175, -187500.02, 90944.84, -187500.02, -187500.02, -187500.02, -187500.02, -146023.73, -187500.02, 0.06, 0.00, 0.00
176, -187500.02, 90939.68, -187500.02, -187500.02, -187500.02, -187500.02, -146022.17, -187500.02, 0.06, 0.00, 0.00
177, -187500.02, 90938.47, -187500.02, -187500.02, -187500.02, -187500.02, -146021.95, -187500.02, 0.06, 0.00, 0.00
178, -187500.02, 90929.33, -187500.02, -187500.02, -187500.02, -187500.02, -146019.20, -187500.02, 0.06, 0.00, 0.00
179, -187500.02, 90916.43, -187500.02, -187500.02, -187500.02, -187500.02, -146015.36, -187500.02, 0.06, 0.00, 0.00
180, -187500.02, 90913.68, -187500.02, -187500.02, -187500.02, -187500.02, -146017.22, -187500.02, 0.06, 0.00, 0.00
181, -187500.02, 90917.51, -187500.02, -187500.02, -187500.02, -187500.02, -146022.02, -187500.02, 0.06, 0.00, 0.00
182, -187500.02, 90913.28, -187500.02, -187500.02, -187500.02, -187500.02, -146023.09, -187500.02, 0.06, 0.00, 0.00
183, -187500.02, 90899.24, -187500.02, -187500.02, -187500.02, -187500.02, -146018.23, -187500.02, 0.06, 0.00, 0.00
184, -187500.02, 90892.94, -187500.02, -187500.02, -187500.02, -187500.02, -146017.17, -187500.02, 0.06, 0.00, 0.00
185, -187500.02, 90895.87, -187500.02, -187500.02, -187500.02, -187500.02, -146021.22, -187500.02, 0.06, 0.00, 0.00
186, -187500.02, 90892.34, -187500.02, -187500.02, -187500.02, -187500.02, -146021.69, -187500.02, 0.06, 0.00, 0.00
187, -187500.02, 90879.58, -187500.02, -187500.02, -187500.02, -187500.02, -146018.06, -187500.02, 0.06, 0.00, 0.00
188, -187500.02, 90873.45, -187500.02, -187500.02, -187500.02, -187500.02, -146018.44, -187500.02, 0.06, 0.00, 0.00
189, -187500.02, 90873.27, -187500.02, -187500.02, -187500.02, -187500.02, -146019.83, -187500.02, 0.06, 0.00, 0.00
190, -187500.02, 90872.89, -187500.02, -187500.02, -187500.02, -187500.02, -146022.20, -187500.02, 0.06, 0.00, 0.00
191, -187500.02, 90861.25, -187500.02, -187500.02, -187500.02, -187500.02, -146019.41, -187500.02, 0.06, 0.00, 0.00
192, -187500.02, 90853.34, -187500.02, -187500.02, -187500.02, -187500.02, -146018.64, -187500.02, 0.06, 0.00, 0.00
193, -187500.02, 90852.38, -187500.02, -187500.02, -187500.02, -187500.02, -146020.03, -187500.02, 0.06, 0.00, 0.00
194, -187500.02, 90848.88, -187500.02, -187500.02, -187500.02, -187500.02, -146018.27, -187500.02, 0.06, 0.00, 0.00
195, -187500.02, 90839.50, -187500.02, -187500.02, -187500.02, -187500.02, -146017.11, -187500.02, 0.06, 0.00, 0.00
196, -187500.02, 90828.12, -187500.02, -187500.02, -187500.02, -187500.02, -146013.84, -187500.02, 0.06, 0.00, 0.00
197, -187500.02, 90827.85, -187500.02, -187500.02, -187500.02, -187500.02, -146016.81, -187500.02, 0.06, 0.00, 0.00
198, -187500.02, 90828.63, -187500.02, -187500.02, -187500.02, -187500.02, -146018.83, -187500.02, 0.06, 0.00, 0.00
199, -187500.02, 90820.05, -187500.02, -187500.02, -187500.02, -187500.02, -146017.38, -187500.02, 0.06, 0.00, 0.00
200, -187500.02, 90809.77, -187500.02, -187500.02, -187500.02, -187500.02, -146015.47, -187500.02, 0.06, 0.00, 0.00
201, -187500.02, 90805.41, -187500.02, -187500.02, -187500.02, -187500.02, -146015.16, -187500.02, 0.06, 0.00, 0.00
202, -187500.02, 90805.50, -187500.02, -187500.02, -187500.02, -187500.02, -146016.28, -187500.02, 0.06, 0.00, 0.00
203, -187500.02, 90801.66, -187500.02, -187500.02, -187500.02, -187500.02, -146018.33, -187500.02, 0.06, 0.00, 0.00
204, -187500.02, 90791.15, -187500.02, -187500.02, -187500.02, -187500.02, -146016.98, -187500.02, 0.06, 0.00, 0.00
205, -187500.02, 90785.05, -187500.02, -187500.02, -187500.02, -187500.02, -146015.84, -187500.02, 0.06, 0.00, 0.00
206, -187500.02, 90785.14, -187500.02, -187500.02, -187500.02, -187500.02, -146016.77, -187500.02, 0.06, 0.00, 0.00
207, -187500.02, 90782.37, -187500.02, -187500.02, -187500.02, -187500.02, -146018.72, -187500.02, 0.06, 0.00, 0.00
208, -187500.02, 90772.20, -187500.02, -187500.02, -187500.02, -187500.02, -146017.70, -187500.02, 0.06, 0.00, 0.00
209, -187500.02, 90765.80, -187500.02, -187500.02, -187500.02, -187500.02, -146017.06, -187500.02, 0.06, 0.00, 0.00
210, -187500.02, 90765.60, -187500.02, -187500.02, -187500.02, -187500.02, -146018.17, -187500.02, 0.06, 0.00, 0.00
211, -187500.02, 90762.95, -187500.02, -187500.02, -187500.02, -187500.02, -146019.00, -187500.02, 0.06, 0.00, 0.00
212, -187500.02, 90753.91, -187500.02, -187500.02, -187500.02, -187500.02, -146019.27, -187500.02, 0.06, 0.00, 0.00
213, -187500.02, 90743.81, -187500.02, -187500.02, -187500.02, -187500.02, -146015.97, -187500.02, 0.06, 0.00, 0.00
214, -187500.02, 90741.80, -187500.02, -187500.02, -187500.02, -187500.02, -146015.88, -187500.02, 0.06, 0.00, 0.00
215, -187500.02, 90742.85, -187500.02, -187500.02, -187500.02, -187500.02, -146019.16, -187500.02, 0.06, 0.00, 0.00
216, -187500.02, 90730.16, -187500.02, -187500.02, -187500.02, -187500.02, -146014.83, -187500.02, 0.06, 0.00, 0.00
217, -187500.02, 90718.80, -187500.02, -187500.02, -187500.02, -187500.02, -146010.95, -187500.02, 0.06, 0.00, 0.00
218, -187500.02, 90718.93, -187500.02, -187500.02, -187500.02, -187500.02, -146013.81, -187500.02, 0.06, 0.00, 0.00
219, -187500.02, 90720.27, -187500.02, -187500.02, -187500.02, -187500.02, -146016.70, -187500.02, 0.06, 0.00, 0.00
220, -187500.02, 90710.35, -187500.02, -187500.02, -187500.02, -187500.02, -146014.59, -187500.02, 0.06, 0.00, 0.00
221, -187500.02, 90702.64, -187500.02, -187500.02, -187500.02, -187500.02, -146015.20, -187500.02, 0.06, 0.00, 0.00
222, -187500.02, 90696.76, -187500.02, -187500.02, -187500.02, -187500.02, -146012.83, -187500.02, 0.06, 0.00, 0.00
223, -187500.02, 90697.25, -187500.02, -187500.02, -187500.02, -187500.02, -146014.39, -187500.02, 0.06, 0.00, 0.00
224, -187500.02, 90692.78, -187500.02, -187500.02, -187500.02, -187500.02, -146016.63, -187500.02, 0.06, 0.00, 0.00
225, -187500.02, 90680.29, -187500.02, -187500.02, -187500.02, -187500.02, -146012.97, -187500.02, 0.06, 0.00, 0.00
226, -187500.02, 90675.80, -187500.02, -187500.02, -187500.02, -187500.02, -146012.86, -187500.02, 0.06, 0.00, 0.00
227, -187500.02, 90678.97, -187500.02, -187500.02, -187500.02, -187500.02, -146016.92, -187500.02, 0.06, 0.00, 0.00
228, -187500.02, 90675.41, -187500.02, -187500.02, -187500.02, -187500.02, -146018.89, -187500.02, 0.06, 0.00, 0.00
229, -187500.02, 90660.86, -187500.02, -187500.02, -187500.02, -187500.02, -146013.53, -187500.02, 0.06, 0.00, 0.00
230, -187500.02, 90653.76, -187500.02, -187500.02, -187500.02, -187500.02, -146011.77, -187500.02, 0.06, 0.00, 0.00
231, -187500.02, 90654.74, -187500.02, -187500.02, -187500.02, -187500.02, -146013.81, -187500.02, 0.06, 0.00, 0.00
232, -187500.02, 90650.65, -187500.02, -187500.02, -187500.02, -187500.02, -146013.86, -187500.02, 0.06, 0.00, 0.00
233, -187500.02, 90638.00, -187500.02, -187500.02, -187500.02, -187500.02, -146010.34, -187500.02, 0.06, 0.00, 0.00
234, -187500.02, 90627.42, -187500.02, -187500.02, -187500.02, -187500.02, -146005.91, -187500.02, 0.06, 0.00, 0.00
235, -187500.02, 90628.50, -187500.02, -187500.02, -187500.02, -187500.02, -146008.56, -187500.02, 0.06, 0.00, 0.00
236, -187500.02, 90628.03, -187500.02, -187500.02, -187500.02, -187500.02, -146011.06, -187500.02, 0.06, 0.00, 0.00
237, -187500.02, 90615.80, -187500.02, -187500.02, -187500.02, -187500.02, -146007.83, -187500.02, 0.06, 0.00, 0.00
238, -187500.02, 90606.01, -187500.02, -187500.02, -187500.02, -187500.02, -146005.08, -187500.02, 0.06, 0.00, 0.00
239, -187500.02, 90604.67, -187500.02, -187500.02, -187500.02, -187500.02, -146005.86, -187500.02, 0.06, 0.00, 0.00
240, -187500.02, 90606.34, -187500.02, -187500.02, -187500.02, -187500.02, -146009.55, -187500.02, 0.06, 0.00, 0.00
241, -187500.02, 90600.85, -187500.02, -187500.02, -187500.02, -187500.02, -146012.31, -187500.02, 0.06, 0.00, 0.00
242, -187500.02, 90591.26, -187500.02, -187500.02, -187500.02, -187500.02, -146010.58, -187500.02, 0.06, 0.00, 0.00
243, -187500.02, 90587.44, -187500.02, -187500.02, -187500.02, -187500.02, -146009.59, -187500.02, 0.06, 0.00, 0.00
244, -187500.02, 90587.68, -187500.02, -187500.02, -187500.02, -187500.02, -146011.25, -187500.02, 0.06, 0.00, 0.00
245, -187500.02, 90578.74, -187500.02, -187500.02, -187500.02, -187500.02, -146009.80, -187500.02, 0.07, 0.00, 0.00
246, -187500.02, 90569.78, -187500.02, -187500.02, -187500.02, -187500.02, -146009.39, -187500.02, 0.07, 0.00, 0.00
247, -187500.02, 90565.48, -187500.02, -187500.02, -187500.02, -187500.02, -146008.94, -187500.02, 0.07, 0.00, 0.00
248, -187500.02, 90566.56, -187500.02, -187500.02, -187500.02, -187500.02, -146010.83, -187500.02, 0.07, 0.00, 0.00
249, -187500.02, 90559.61, -187500.02, -187500.02, -187500.02, -187500.02, -146010.03, -187500.02, 0.07, 0.00, 0.00
250, -187500.02, 90547.90, -187500.02, -187500.02, -187500.02, -187500.02, -146007.36, -187500.02, 0.07, 0.00, 0.00
251, -187500.02, 90542.51, -187500.02, -187500.02, -187500.02, -187500.02, -146006.66, -187500.02, 0.07, 0.00, 0.00
252, -187500.02, 90541.21, -187500.02, -187500.02, -187500.02, -187500.02, -146006.38, -187500.02, 0.07, 0.00, 0.00
253, -187500.02, 90536.74, -187500.02, -187500.02, -187500.02, -187500.02, -146006.95, -187500.02, 0.07, 0.00, 0.00
254, -187500.02, 90521.86, -187500.02, -187500.02, -187500.02, -187500.02, -146001.23, -187500.02, 0.07, 0.00, 0.00
255, -187500.02, 90515.89, -187500.02, -187500.02, -187500.02, -187500.02, -146000.88, -187500.02, 0.07, 0.00, 0.00
0, -187500.02, 90519.78, -187500.02, -187500.02, -187500.02, -187500.02, -146005.95, -187500.02, 0.07, 0.00, 0.00
1, -187500.02, 90517.95, -187500.02, -187500.02, -187500.02, -187500.02, -146007.84, -187500.02, 0.07, 0.00, 0.00
2, -187500.02, 90506.48, -187500.02, -187500.02, -187500.02, -187500.02, -146005.44, -187500.02, 0.07, 0.00, 0.00
3, -187500.02, 90498.66, -187500.02, -187500.02, -187500.02, -187500.02, -146004.19, -187500.02, 0.07, 0.00, 0.00
4, -187500.02, 90497.09, -187500.02, -187500.02, -187500.02, -187500.02, -146004.42, -187500.02, 0.07, 0.00, 0.00
5, -187500.02, 90496.47, -187500.02, -187500.02, -187500.02, -187500.02, -146006.42, -187500.02, 0.07, 0.00, 0.00
6, -187500.02, 90486.19, -187500.02, -187500.02, -187500.02, -187500.02, -146004.86, -187500.02, 0.07, 0.00, 0.00
7, -187500.02, 90479.26, -187500.02, -187500.02, -187500.02, -187500.02, -146005.33, -187500.02, 0.07, 0.00, 0.00
8, -187500.02, 90477.73, -187500.02, -187500.02, -187500.02, -187500.02, -146006.19, -187500.02, 0.07, 0.00, 0.00
9, -187500.02, 90478.05, -187500.02, -187500.02, -187500.02, -187500.02, -146008.11, -187500.02, 0.07, 0.00, 0.00
10, -187500.02, 90469.55, -187500.02, -187500.02, -187500.02, -187500.02, -146007.67, -187500.02, 0.07, 0.00, 0.00
11, -187500.02, 90459.97, -187500.02, -187500.02, -187500.02, -187500.02, -146006.23, -187500.02, 0.07, 0.00, 0.00
12, -187500.02, 90457.24, -187500.02, -187500.02, -187500.02, -187500.02, -146006.73, -187500.02, 0.07, 0.00, 0.00
13, -187500.02, 90458.76, -187500.02, -187500.02, -187500.02, -187500.02, -146009.50, -187500.02, 0.07, 0.00, 0.00
14, -187500.02, 90451.78, -187500.02, -187500.02, -187500.02, -187500.02, -146009.55, -187500.02, 0.07, 0.00, 0.00
15, -187500.02, 90439.76, -187500.02, -187500.02, -187500.02, -187500.02, -146006.06, -187500.02, 0.07, 0.00, 0.00
16, -187500.02, 90435.16, -187500.02, -187500.02, -187500.02, -187500.02, -146005.56, -187500.02, 0.07, 0.00, 0.00
17, -187500.02, 90433.63, -187500.02, -187500.02, -187500.02, -187500.02, -146004.98, -187500.02, 0.07, 0.00, 0.00
18, -187500.02, 90426.39, -187500.02, -187500.02, -187500.02, -187500.02, -146003.53, -187500.02, 0.07, 0.00, 0.00
19, -187500.02, 90416.11, -187500.02, -187500.02, -187500.02, -187500.02, -146002.23, -187500.02, 0.07, 0.00, 0.00
20, -187500.02, 90410.44, -187500.02, -187500.02, -187500.02, -187500.02, -146001.75, -187500.02, 0.07, 0.00, 0.00
21, -187500.02, 90408.80, -187500.02, -187500.02, -187500.02, -187500.02, -146001.28, -187500.02, 0.07, 0.00, 0.00
22, -187500.02, 90402.50, -187500.02, -187500.02, -187500.02, -187500.02, -145999.48, -187500.02, 0.07, 0.00, 0.00
23, -187500.02, 90392.44, -187500.02, -187500.02, -187500.02, -187500.02, -145998.59, -187500.02, 0.07, 0.00, 0.00
24, -187500.02, 90386.38, -187500.02, -187500.02, -187500.02, -187500.02, -145998.38, -187500.02, 0.07, 0.00, 0.00
25, -187500.02, 90389.42, -187500.02, -187500.02, -187500.02, -187500.02, -146002.80, -187500.02, 0.08, 0.00, 0.00
26, -187500.02, 90390.18, -187500.02, -187500.02, -187500.02, -187500.02, -146006.86, -187500.02, 0.07, 0.00, 0.00
27, -187500.02, 90378.45, -187500.02, -187500.02, -187500.02, -187500.02, -146004.20, -187500.02, 0.08, 0.00, 0.00
28, -187500.02, 90369.27, -187500.02, -187500.02, -187500.02, -187500.02, -146001.86, -187500.02, 0.08, 0.01, 0.10
29, -187500.02, 90368.34, -187500.02, -187500.02, -187500.02, -187500.02, -146003.00, -187500.02, 0.08, 0.00, 0.00
30, -187500.02, 90370.47, -187500.02, -187500.02, -187500.02, -187500.02, -146007.41, -187500.02, 0.08, 0.00, 0.00
31, -187500.02, 90357.41, -187500.02, -187500.02, -187500.02, -187500.02, -146002.73, -187500.02, 0.08, 0.00, 0.00
32, -187500.02, 90345.44, -187500.02, -187500.02, -187500.02, -187500.02, -145998.33, -187500.02, 0.08, 0.00, 0.00
33, -187500.02, 90345.41, -187500.02, -187500.02, -187500.02, -187500.02, -146001.13, -187500.02, 0.08, 0.00, 0.00
34, -187500.02, 90345.23, -187500.02, -187500.02, -187500.02, -187500.02, -146002.28, -187500.02, 0.08, 0.00, 0.00
35, -187500.02, 90334.35, -187500.02, -187500.02, -187500.02, -187500.02, -145999.00, -187500.02, 0.08, 0.00, 0.00
36, -187500.02, 90325.20, -187500.02, -187500.02, -187500.02, -187500.02, -145998.34, -187500.02, 0.09, 0.00, 0.00
37, -187500.02, 90319.80, -187500.02, -187500.02, -187500.02, -187500.02, -145996.53, -187500.02, 0.09, 0.00, 0.00
38, -187500.02, 90321.83, -187500.02, -187500.02, -187500.02, -187500.02, -145999.67, -187500.02, 0.09, 0.00, 0.00
39, -187500.02, 90316.40, -187500.02, -187500.02, -187500.02, -187500.02, -146000.72, -187500.02, 0.09, 0.00, 0.00
40, -187500.02, 90303.97, -187500.02, -187500.02, -187500.02, -187500.02, -145997.00, -187500.02, 0.09, 0.00, 0.00
41, -187500.02, 90299.68, -187500.02, -187500.02, -187500.02, -187500.02, -145997.20, -187500.02, 0.09, 0.00, 0.00
42, -187500.02, 90299.21, -187500.02, -187500.02, -187500.02, -187500.02, -145997.75, -187500.02, 0.09, 0.00, 0.00
43, -187500.02, 90292.88, -187500.02, -187500.02, -187500.02, -187500.02, -145996.69, -187500.02, 0.09, 0.00, 0.00
44, -187500.02, 90282.72, -187500.02, -187500.02, -187500.02, -187500.02, -145995.80, -187500.02, 0.10, 0.00, 0.00
45, -187500.02, 90274.18, -187500.02, -187500.02, -187500.02, -187500.02, -145992.67, -187500.02, 0.10, 0.00, 0.00
46, -187500.02, 90273.89, -187500.02, -187500.02, -187500.02, -187500.02, -145993.36, -187500.02, 0.09, 0.00, 0.00
47, -187500.02, 90271.41, -187500.02, -187500.02, -187500.02, -187500.02, -145994.95, -187500.02, 0.09, 0.00, 0.00
48, -187500.02, 90261.02, -187500.02, -187500.02, -187500.02, -187500.02, -145993.72, -187500.02, 0.09, 0.00, 0.00
49, -187500.02, 90253.01, -187500.02, -187500.02, -187500.02, -187500.02, -145991.95, -187500.02, 0.09, 0.00, 0.00
50, -187500.02, 90253.75, -187500.02, -187500.02, -187500.02, -187500.02, -145994.27, -187500.02, 0.09, 0.00, 0.00
51, -187500.02, 90253.62, -187500.02, -187500.02, -187500.02, -187500.02, -145997.00, -187500.02, 0.09, 0.00, 0.00
52, -187500.02, 90240.60, -187500.02, -187500.02, -187500.02, -187500.02, -145992.94, -187500.02, 0.09, 0.00, 0.00
53, -187500.02, 90232.07, -187500.02, -187500.02, -187500.02, -187500.02, -145991.67, -187500.02, 0.09, 0.00, 0.00
54, -187500.02, 90231.77, -187500.02, -187500.02, -187500.02, -187500.02, -145993.67, -187500.02, 0.09, 0.00, 0.00
55, -187500.02, 90229.98, -187500.02, -187500.02, -187500.02, -187500.02, -145993.75, -187500.02, 0.09, 0.00, 0.00
56, -187500.02, 90218.77, -187500.02, -187500.02, -187500.02, -187500.02, -145990.69, -187500.02, 0.09, 0.00, 0.00
57, -187500.02, 90208.33, -187500.02, -187500.02, -187500.02, -187500.02, -145988.11, -187500.02, 0.09, 0.00, 0.00
58, -187500.02, 90206.23, -187500.02, -187500.02, -187500.02, -187500.02, -145989.05, -187500.02, 0.09, 0.00, 0.00
59, -187500.02, 90208.98, -187500.02, -187500.02, -187500.02, -187500.02, -145993.05, -187500.02, 0.09, 0.00, 0.00
60, -187500.02, 90200.55, -187500.02, -187500.02, -187500.02, -187500.02, -145991.91, -187500.02, 0.09, 0.00, 0.00
61, -187500.02, 90188.68, -187500.02, -187500.02, -187500.02, -187500.02, -145988.61, -187500.02, 0.09, 0.00, 0.00
62, -187500.02, 90185.51, -187500.02, -187500.02, -187500.02, -187500.02, -145989.44, -187500.02, 0.09, 0.00, 0.00
63, -187500.02, 90190.52, -187500.02, -187500.02, -187500.02, -187500.02, -145995.33, -187500.02, 0.09, 0.00, 0.00
64, -187500.02, 90185.51, -187500.02, -187500.02, -187500.02, -187500.02, -145996.42, -187500.02, 0.09, 0.00, 0.00
65, -187500.02, 90173.77, -187500.02, -187500.02, -187500.02, -187500.02, -145993.70, -187500.02, 0.08, 0.00, 0.00
66, -187500.02, 90166.35, -187500.02, -187500.02, -187500.02, -187500.02, -145991.22, -187500.02, 0.08, 0.00, 0.00
67, -187500.02, 90166.45, -187500.02, -187500.02, -187500.02, -187500.02, -145992.09, -187500.02, 0.08, 0.00, 0.00
68, -187500.02, 90163.76, -187500.02, -187500.02, -187500.02, -187500.02, -145994.30, -187500.02, 0.08, 0.00, 0.00
69, -187500.02, 90151.98, -187500.02, -187500.02, -187500.02, -187500.02, -145991.91, -187500.02, 0.08, 0.00, 0.00
70, -187500.02, 90145.01, -187500.02, -187500.02, -187500.02, -187500.02, -145990.73, -187500.02, 0.08, 0.00, 0.00
71, -187500.02, 90147.13, -187500.02, -187500.02, -187500.02, -187500.02, -145994.17, -187500.02, 0.08, 0.00, 0.00
72, -187500.02, 90146.41, -187500.02, -187500.02, -187500.02, -187500.02, -145996.81, -187500.02, 0.07, 0.00, 0.00
73, -187500.02, 90135.40, -187500.02, -187500.02, -187500.02, -187500.02, -145994.69, -187500.02, 0.07, 0.00, 0.00
74, -187500.02, 90125.41, -187500.02, -187500.02, -187500.02, -187500.02, -145991.28, -187500.02, 0.07, 0.00, 0.00
75, -187500.02, 90124.04, -187500.02, -187500.02, -187500.02, -187500.02, -145991.84, -187500.02, 0.07, 0.00, 0.00
76, -187500.02, 90122.03, -187500.02, -187500.02, -187500.02, -187500.02, -145992.42, -187500.02, 0.07, 0.00, 0.00
77, -187500.02, 90109.84, -187500.02, -187500.02, -187500.02, -187500.02, -145988.88, -187500.02, 0.07, 0.00, 0.00
78, -187500.02, 90099.86, -187500.02, -187500.02, -187500.02, -187500.02, -145986.44, -187500.02, 0.07, 0.00, 0.00
79, -187500.02, 90097.80, -187500.02, -187500.02, -187500.02, -187500.02, -145986.88, -187500.02, 0.07, 0.00, 0.00
80, -187500.02, 90099.68, -187500.02, -187500.02, -187500.02, -187500.02, -145990.06, -187500.02, 0.06, 0.00, 0.00
81, -187500.02, 90092.32, -187500.02, -187500.02, -187500.02, -187500.02, -145990.56, -187500.02, 0.06, 0.00, 0.00
82, -187500.02, 90082.40, -187500.02, -187500.02, -187500.02, -187500.02, -145988.95, -187500.02, 0.06, 0.00, 0.00
83, -187500.02, 90077.21, -187500.02, -187500.02, -187500.02, -187500.02, -145987.34, -187500.02, 0.06, 0.00, 0.00
84, -187500.02, 90077.55, -187500.02, -187500.02, -187500.02, -187500.02, -145988.83, -187500.02, 0.06, 0.00, 0.00
85, -187500.02, 90072.61, -187500.02, -187500.02, -187500.02, -187500.02, -145990.77, -187500.02, 0.06, 0.00, 0.00
86, -187500.02, 90062.13, -187500.02, -187500.02, -187500.02, -187500.02, -145988.89, -187500.02, 0.06, 0.00, 0.00
87, -187500.02, 90057.48, -187500.02, -187500.02, -187500.02, -187500.02, -145988.53, -187500.02, 0.06, 0.00, 0.00
88, -187500.02, 90058.17, -187500.02, -187500.02, -187500.02, -187500.02, -145990.08, -187500.02, 0.06, 0.00, 0.00
89, -187500.02, 90053.92, -187500.02, -187500.02, -187500.02, -187500.02, -145991.38, -187500.02, 0.06, 0.00, 0.00
90, -187500.02, 90043.30, -187500.02, -187500.02, -187500.02, -187500.02, -145989.91, -187500.02, 0.06, 0.00, 0.00
91, -187500.02, 90037.36, -187500.02, -187500.02, -187500.02, -187500.02, -145989.19, -187500.02, 0.06, 0.00, 0.00
92, -187500.02, 90036.71, -187500.02, -187500.02, -187500.02, -187500.02, -145989.78, -187500.02, 0.06, 0.00, 0.00
93, -187500.02, 90030.41, -187500.02, -187500.02, -187500.02, -187500.02, -145987.80, -187500.02, 0.06, 0.00, 0.00
94, -187500.02, 90019.05, -187500.02, -187500.02, -187500.02, -187500.02, -145985.50, -187500.02, 0.06, 0.00, 0.00
95, -187500.02, 90012.93, -187500.02, -187500.02, -187500.02, -187500.02, -145985.41, -187500.02, 0.06, 0.00, 0.00
96, -187500.02, 90013.71, -187500.02, -187500.02, -187500.02, -187500.02, -145987.53, -187500.02, 0.06, 0.00, 0.00
97, -187500.02, 90010.02, -187500.02, -187500.02, -187500.02, -187500.02, -145986.97, -187500.02, 0.06, 0.00, 0.00
98, -187500.02, 89997.27, -187500.02, -187500.02, -187500.02, -187500.02, -145983.22, -187500.02, 0.06, 0.00, 0.00
99, -187500.02, 89988.79, -187500.02, -187500.02, -187500.02, -187500.02, -145981.78, -187500.02, 0.06, 0.00, 0.00
100, -187500.02, 89987.13, -187500.02, -187500.02, -187500.02, -187500.02, -145982.39, -187500.02, 0.06, 0.00, 0.00
101, -187500.02, 89988.09, -187500.02, -187500.02, -187500.02, -187500.02, -145985.36, -187500.02, 0.06, 0.00, 0.00
102, -187500.02, 89980.79, -187500.02, -187500.02, -187500.02, -187500.02, -145986.44, -187500.02, 0.06, 0.00, 0.00
103, -187500.02, 89970.30, -187500.02, -187500.02, -187500.02, -187500.02, -145983.63, -187500.02, 0.06, 0.00, 0.00
104, -187500.02, 89969.48, -187500.02, -187500.02, -187500.02, -187500.02, -145985.61, -187500.02, 0.06, 0.00, 0.00
105, -187500.02, 89968.54, -187500.02, -187500.02, -187500.02, -187500.02, -145985.92, -187500.02, 0.06, 0.00, 0.00
106, -187500.02, 89959.87, -187500.02, -187500.02, -187500.02, -187500.02, -145984.69, -187500.02, 0.06, 0.00, 0.00
107, -187500.02, 89949.38, -187500.02, -187500.02, -187500.02, -187500.02, -145982.64, -187500.02, 0.05, 0.00, 0.00
108, -187500.02, 89945.49, -187500.02, -187500.02, -187500.02, -187500.02, -145982.53, -187500.02, 0.06, 0.00, 0.00
109, -187500.02, 89946.30, -187500.02, -187500.02, -187500.02, -187500.02, -145984.47, -187500.02, 0.06, 0.00, 0.00
110, -187500.02, 89940.47, -187500.02, -187500.02, -187500.02, -187500.02, -145984.89, -187500.02, 0.06, 0.00, 0.00
111, -187500.02, 89931.75, -187500.02, -187500.02, -187500.02, -187500.02, -145985.08, -187500.02, 0.06, 0.00, 0.00
112, -187500.02, 89925.42, -187500.02, -187500.02, -187500.02, -187500.02, -145983.42, -187500.02, 0.06, 0.00, 0.00
113, -187500.02, 89921.89, -187500.02, -187500.02, -187500.02, -187500.02, -145980.72, -187500.02, 0.06, 0.00, 0.00
114, -187500.02, 89916.84, -187500.02, -187500.02, -187500.02, -187500.02, -145980.73, -187500.02, 0.06, 0.00, 0.00
115, -187500.02, 89908.08, -187500.02, -187500.02, -187500.02, -187500.02, -145981.25, -187500.02, 0.06, 0.00, 0.00
116, -187500.02, 89901.20, -187500.02, -187500.02, -187500.02, -187500.02, -145979.86, -187500.02, 0.06, 0.00, 0.00
117, -187500.02, 89904.73, -187500.02, -187500.02, -187500.02, -187500.02, -145984.64, -187500.02, 0.06, 0.00, 0.00
118, -187500.02, 89900.57, -187500.02, -187500.02, -187500.02, -187500.02, -145984.36, -187500.02, 0.06, 0.00, 0.00
119, -187500.02, 89887.16, -187500.02, -187500.02, -187500.02, -187500.02, -145980.00, -187500.02, 0.06, 0.00, 0.00
120, -187500.02, 89878.17, -187500.02, -187500.02, -187500.02, -187500.02, -145977.30, -187500.02, 0.06, 0.00, 0.00
121, -187500.02, 89878.06, -187500.02, -187500.02, -187500.02, -187500.02, -145978.88, -187500.02, 0.06, 0.00, 0.00
122, -187500.02, 89874.95, -187500.02, -187500.02, -187500.02, -187500.02, -145978.48, -187500.02, 0.06, 0.00, 0.00
123, -187500.02, 89865.88, -187500.02, -187500.02, -187500.02, -187500.02, -145978.08, -187500.02, 0.06, 0.00, 0.00
124, -187500.02, 89861.12, -187500.02, -187500.02, -187500.02, -187500.02, -145980.67, -187500.02, 0.06, 0.00, 0.00
125, -187500.02, 89858.28, -187500.02, -187500.02, -187500.02, -187500.02, -145980.27, -187500.02, 0.06, 0.00, 0.00
126, -187500.02, 89858.39, -187500.02, -187500.02, -187500.02, -187500.02, -145982.17, -187500.02, 0.06, 0.00, 0.00
127, -187500.02, 89845.25, -187500.02, -187500.02, -187500.02, -187500.02, -145977.14, -187500.02, 0.06, 0.00, 0.00
128, -187500.02, 89834.07, -187500.02, -187500.02, -187500.02, -187500.02, -145973.92, -187500.02, 0.06, 0.00, 0.00
129, -187500.02, 89831.23, -187500.02, -187500.02, -187500.02, -187500.02, -145974.25, -187500.02, 0.06, 0.00, 0.00
130, -187500.02, 89834.30, -187500.02, -187500.02, -187500.02, -187500.02, -145978.50, -187500.02, 0.06, 0.00, 0.00
131, -187500.02, 89826.36, -187500.02, -187500.02, -187500.02, -187500.02, -145977.58, -187500.02, 0.06, 0.00, 0.00
132, -187500.02, 89814.09, -187500.02, -187500.02, -187500.02, -187500.02, -145973.98, -187500.02, 0.06, 0.00, 0.00
133, -187500.02, 89813.51, -187500.02, -187500.02, -187500.02, -187500.02, -145977.61, -187500.02, 0.06, 0.00, 0.00
134, -187500.02, 89816.64, -187500.02, -187500.02, -187500.02, -187500.02, -145981.56, -187500.02, 0.06, 0.00, 0.00
135, -187500.02, 89810.29, -187500.02, -187500.02, -187500.02, -187500.02, -145981.16, -187500.02, 0.06, 0.00, 0.00
136, -187500.02, 89798.24, -187500.02, -187500.02, -187500.02, -187500.02, -145978.05, -187500.02, 0.06, 0.00, 0.00
137, -187500.02, 89793.34, -187500.02, -187500.02, -187500.02, -187500.02, -145978.14, -187500.02, 0.06, 0.00, 0.00
138, -187500.02, 89793.05, -187500.02, -187500.02, -187500.02, -187500.02, -145978.88, -187500.02, 0.06, 0.00, 0.00
139, -187500.02, 89790.69, -187500.02, -187500.02, -187500.02, -187500.02, -145981.11, -187500.02, 0.06, 0.00, 0.00
140, -187500.02, 89777.68, -187500.02, -187500.02, -187500.02, -187500.02, -145977.36, -187500.02, 0.06, 0.00, 0.00
141, -187500.02, 89769.54, -187500.02, -187500.02, -187500.02, -187500.02, -145975.06, -187500.02, 0.06, 0.00, 0.00
142, -187500.02, 89770.70, -187500.02, -187500.02, -187500.02, -187500.02, -145977.58, -187500.02, 0.06, 0.00, 0.00
143, -187500.02, 89768.02, -187500.02, -187500.02, -187500.02, -187500.02, -145978.39, -187500.02, 0.06, 0.00, 0.00
144, -187500.02, 89752.64, -187500.02, -187500.02, -187500.02, -187500.02, -145971.80, -187500.02, 0.06, 0.00, 0.00
145, -187500.02, 89742.54, -187500.02, -187500.02, -187500.02, -187500.02, -145968.47, -187500.02, 0.06, 0.00, 0.00
146, -187500.02, 89745.18, -187500.02, -187500.02, -187500.02, -187500.02, -145973.06, -187500.02, 0.06, 0.00, 0.00
147, -187500.02, 89745.41, -187500.02, -187500.02, -187500.02, -187500.02, -145975.50, -187500.02, 0.06, 0.00, 0.00
148, -187500.02, 89735.14, -187500.02, -187500.02, -187500.02, -187500.02, -145973.92, -187500.02, 0.06, 0.00, 0.00
149, -187500.02, 89727.37, -187500.02, -187500.02, -187500.02, -187500.02, -145973.78, -187500.02, 0.05, 0.00, 0.00
150, -187500.02, 89727.09, -187500.02, -187500.02, -187500.02, -187500.02, -145976.20, -187500.02, 0.06, 0.00, 0.00
151, -187500.02, 89727.99, -187500.02, -187500.02, -187500.02, -187500.02, -145978.55, -187500.02, 0.06, 0.00, 0.00
152, -187500.02, 89717.82, -187500.02, -187500.02, -187500.02, -187500.02, -145976.02, -187500.02, 0.06, 0.00, 0.00
153, -187500.02, 89706.06, -187500.02, -187500.02, -187500.02, -187500.02, -145972.55, -187500.02, 0.06, 0.00, 0.00
154, -187500.02, 89701.26, -187500.02, -187500.02, -187500.02, -187500.02, -145971.22, -187500.02, 0.06, 0.00, 0.00
155, -187500.02, 89701.30, -187500.02, -187500.02, -187500.02, -187500.02, -145972.33, -187500.02, 0.06, 0.00, 0.00
156, -187500.02, 89693.21, -187500.02, -187500.02, -187500.02, -187500.02, -145970.94, -187500.02, 0.06, 0.00, 0.00
157, -187500.02, 89681.05, -187500.02, -187500.02, -187500.02, -187500.02, -145967.59, -187500.02, 0.06, 0.00, 0.00
158, -187500.02, 89676.16, -187500.02, -187500.02, -187500.02, -187500.02, -145967.14, -187500.02, 0.06, 0.00, 0.00
159, -187500.02, 89677.43, -187500.02, -187500.02, -187500.02, -187500.02, -145969.22, -187500.02, 0.06, 0.00, 0.00
160, -187500.02, 89672.09, -187500.02, -187500.02, -187500.02, -187500.02, -145969.17, -187500.02, 0.06, 0.00, 0.00
161, -187500.02, 89658.99, -187500.02, -187500.02, -187500.02, -187500.02, -145965.17, -187500.02, 0.06, 0.00, 0.00
162, -187500.02, 89651.32, -187500.02, -187500.02, -187500.02, -187500.02, -145962.86, -187500.02, 0.06, 0.00, 0.00
163, -187500.02, 89652.40, -187500.02, -187500.02, -187500.02, -187500.02, -145965.09, -187500.02, 0.06, 0.00, 0.00
164, -187500.02, 89649.18, -187500.02, -187500.02, -187500.02, -187500.02, -145966.09, -187500.02, 0.06, 0.00, 0.00
165, -187500.02, 89640.57, -187500.02, -187500.02, -187500.02, -187500.02, -145966.70, -187500.02, 0.06, 0.00, 0.00
166, -187500.02, 89632.02, -187500.02, -187500.02, -187500.02, -187500.02, -145964.27, -187500.02, 0.06, 0.00, 0.00
167, -187500.02, 89631.70, -187500.02, -187500.02, -187500.02, -187500.02, -145965.53, -187500.02, 0.06, 0.00, 0.00
168, -187500.02, 89630.80, -187500.02, -187500.02, -187500.02, -187500.02, -145967.55, -187500.02, 0.06, 0.00, 0.00
169, -187500.02, 89621.17, -187500.02, -187500.02, -187500.02, -187500.02, -145966.77, -187500.02, 0.06, 0.00, 0.00
170, -187500.02, 89610.80, -187500.02, -187500.02, -187500.02, -187500.02, -145963.45, -187500.02, 0.06, 0.00, 0.00
171, -187500.02, 89610.02, -187500.02, -187500.02, -187500.02, -187500.02, -145964.86, -187500.02, 0.06, 0.00, 0.00
172, -187500.02, 89612.30, -187500.02, -187500.02, -187500.02, -187500.02, -145969.20, -187500.02, 0.06, 0.00, 0.00
173, -187500.02, 89603.88, -187500.02, -187500.02, -187500.02, -187500.02, -145969.14, -187500.02, 0.06, 0.00, 0.00
174, -187500.02, 89591.84, -187500.02, -187500.02, -187500.02, -187500.02, -145964.91, -187500.02, 0.06, 0.00, 0.00
175, -187500.02, 89586.98, -187500.02, -187500.02, -187500.02, -187500.02, -145962.97, -187500.02, 0.06, 0.00, 0.00
176, -187500.02, 89586.44, -187500.02, -187500.02, -187500.02, -187500.02, -145963.59, -187500.02, 0.06, 0.00, 0.00
177, -187500.02, 89582.19, -187500.02, -187500.02, -187500.02, -187500.02, -145966.72, -187500.02, 0.06, 0.00, 0.00
178, -187500.02, 89571.26, -187500.02, -187500.02, -187500.02, -187500.02, -145964.22, -187500.02, 0.06, 0.00, 0.00
179, -187500.02, 89567.02, -187500.02, -187500.02, -187500.02, -187500.02, -145963.86, -187500.02, 0.06, 0.00, 0.00
180, -187500.02, 89568.76, -187500.02, -187500.02, -187500.02, -187500.02, -145966.70, -187500.02, 0.06, 0.00, 0.00
181, -187500.02, 89562.72, -187500.02, -187500.02, -187500.02, -187500.02, -145966.92, -187500.02, 0.06, 0.00, 0.00
182, -187500.02, 89549.78, -187500.02, -187500.02, -187500.02, -187500.02, -145962.86, -187500.02, 0.06, 0.00, 0.00
183, -187500.02, 89545.17, -187500.02, -187500.02, -187500.02, -187500.02, -145962.97, -187500.02, 0.06, 0.00, 0.00
184, -187500.02, 89543.39, -187500.02, -187500.02, -187500.02, -187500.02, -145962.00, -187500.02, 0.06, 0.00, 0.00
185, -187500.02, 89538.88, -187500.02, -187500.02, -187500.02, -187500.02, -145962.27, -187500.02, 0.06, 0.00, 0.00
186, -187500.02, 89532.44, -187500.02, -187500.02, -187500.02, -187500.02, -145965.16, -187500.02, 0.06, 0.00, 0.00
187, -187500.02, 89524.61, -187500.02, -187500.02, -187500.02, -187500.02, -145963.06, -187500.02, 0.06, 0.00, 0.00
188, -187500.02, 89524.91, -187500.02, -187500.02, -187500.02, -187500.02, -145964.69, -187500.02, 0.06, 0.00, 0.00
189, -187500.02, 89523.52, -187500.02, -187500.02, -187500.02, -187500.02, -145966.97, -187500.02, 0.06, 0.00, 0.00
190, -187500.02, 89512.32, -187500.02, -187500.02, -187500.02, -187500.02, -145964.91, -187500.02, 0.06, 0.00, 0.00
191, -187500.02, 89501.92, -187500.02, -187500.02, -187500.02, -187500.02, -145961.00, -187500.02, 0.06, 0.00, 0.00
192, -187500.02, 89504.30, -187500.02, -187500.02, -187500.02, -187500.02, -145965.00, -187500.02, 0.06, 0.00, 0.00
193, -187500.02, 89504.23, -187500.02, -187500.02, -187500.02, -187500.02, -145967.48, -187500.02, 0.06, 0.00, 0.00
194, -187500.02, 89491.64, -187500.02, -187500.02, -187500.02, -187500.02, -145963.53, -187500.02, 0.06, 0.00, 0.00
195, -187500.02, 89481.25, -187500.02, -187500.02, -187500.02, -187500.02, -145960.53, -187500.02, 0.06, 0.00, 0.00
196, -187500.02, 89479.20, -187500.02, -187500.02, -187500.02, -187500.02, -145961.00, -187500.02, 0.06, 0.00, 0.00
197, -187500.02, 89481.02, -187500.02, -187500.02, -187500.02, -187500.02, -145964.44, -187500.02, 0.06, 0.00, 0.00
198, -187500.02, 89473.78, -187500.02, -187500.02, -187500.02, -187500.02, -145965.27, -187500.02, 0.07, 0.00, 0.00
199, -187500.02, 89464.40, -187500.02, -187500.02, -187500.02, -187500.02, -145964.03, -187500.02, 0.07, 0.00, 0.00
200, -187500.02, 89461.00, -187500.02, -187500.02, -187500.02, -187500.02, -145963.95, -187500.02, 0.06, 0.00, 0.00
201, -187500.02, 89461.87, -187500.02, -187500.02, -187500.02, -187500.02, -145965.72, -187500.02, 0.06, 0.00, 0.00
202, -187500.02, 89451.12, -187500.02, -187500.02, -187500.02, -187500.02, -145961.84, -187500.02, 0.06, 0.00, 0.00
203, -187500.02, 89442.02, -187500.02, -187500.02, -187500.02, -187500.02, -145961.56, -187500.02, 0.06, 0.00, 0.00
204, -187500.02, 89435.41, -187500.02, -187500.02, -187500.02, -187500.02, -145959.17, -187500.02, 0.06, 0.00, 0.00
205, -187500.02, 89436.66, -187500.02, -187500.02, -187500.02, -187500.02, -145961.25, -187500.02, 0.07, 0.00, 0.00
206, -187500.02, 89431.96, -187500.02, -187500.02, -187500.02, -187500.02, -145962.27, -187500.02, 0.07, 0.00, 0.00
207, -187500.02, 89419.78, -187500.02, -187500.02, -187500.02, -187500.02, -145959.17, -187500.02, 0.06, 0.00, 0.00
208, -187500.02, 89413.50, -187500.02, -187500.02, -187500.02, -187500.02, -145957.92, -187500.02, 0.06, 0.00, 0.00
209, -187500.02, 89412.97, -187500.02, -187500.02, -187500.02, -187500.02, -145958.34, -187500.02, 0.06, 0.00, 0.00
210, -187500.02, 89410.98, -187500.02, -187500.02, -187500.02, -187500.02, -145960.78, -187500.02, 0.06, 0.00, 0.00
211, -187500.02, 89399.53, -187500.02, -187500.02, -187500.02, -187500.02, -145958.56, -187500.02, 0.07, 0.00, 0.00
212, -187500.02, 89391.06, -187500.02, -187500.02, -187500.02, -187500.02, -145956.28, -187500.02, 0.07, 0.00, 0.00
213, -187500.02, 89388.73, -187500.02, -187500.02, -187500.02, -187500.02, -145955.41, -187500.02, 0.07, 0.00, 0.00
214, -187500.02, 89387.75, -187500.02, -187500.02, -187500.02, -187500.02, -145957.47, -187500.02, 0.07, 0.00, 0.00
215, -187500.02, 89378.59, -187500.02, -187500.02, -187500.02, -187500.02, -145957.31, -187500.02, 0.07, 0.00, 0.00
216, -187500.02, 89368.73, -187500.02, -187500.02, -187500.02, -187500.02, -145954.30, -187500.02, 0.07, 0.00, 0.00
217, -187500.02, 89364.87, -187500.02, -187500.02, -187500.02, -187500.02, -145952.39, -187500.02, 0.07, 0.00, 0.00
218, -187500.02, 89364.48, -187500.02, -187500.02, -187500.02, -187500.02, -145954.03, -187500.02, 0.07, 0.00, 0.00
219, -187500.02, 89354.13, -187500.02, -187500.02, -187500.02, -187500.02, -145952.11, -187500.02, 0.07, 0.00, 0.00
220, -187500.02, 89346.24, -187500.02, -187500.02, -187500.02, -187500.02, -145951.98, -187500.02, 0.07, 0.00, 0.00
221, -187500.02, 89344.26, -187500.02, -187500.02, -187500.02, -187500.02, -145952.89, -187500.02, 0.07, 0.00, 0.00
222, -187500.02, 89347.19, -187500.02, -187500.02, -187500.02, -187500.02, -145957.27, -187500.02, 0.07, 0.00, 0.00
223, -187500.02, 89339.79, -187500.02, -187500.02, -187500.02, -187500.02, -145957.36, -187500.02, 0.07, 0.00, 0.00
224, -187500.02, 89329.15, -187500.02, -187500.02, -187500.02, -187500.02, -145955.02, -187500.02, 0.07, 0.00, 0.00
225, -187500.02, 89326.53, -187500.02, -187500.02, -187500.02, -187500.02, -145955.95, -187500.02, 0.07, 0.00, 0.00
226, -187500.02, 89325.37, -187500.02, -187500.02, -187500.02, -187500.02, -145955.72, -187500.02, 0.07, 0.00, 0.00
227, -187500.02, 89319.02, -187500.02, -187500.02, -187500.02, -187500.02, -145955.83, -187500.02, 0.07, 0.00, 0.00
228, -187500.02, 89304.67, -187500.02, -187500.02, -187500.02, -187500.02, -145950.53, -187500.02, 0.07, 0.00, 0.00
229, -187500.02, 89299.84, -187500.02, -187500.02, -187500.02, -187500.02, -145950.31, -187500.02, 0.07, 0.00, 0.00
230, -187500.02, 89303.33, -187500.02, -187500.02, -187500.02, -187500.02, -145954.67, -187500.02, 0.07, 0.00, 0.00
231, -187500.02, 89299.42, -187500.02, -187500.02, -187500.02, -187500.02, -145955.91, -187500.02, 0.07, 0.00, 0.00
232, -187500.02, 89287.91, -187500.02, -187500.02, -187500.02, -187500.02, -145953.44, -187500.02, 0.07, 0.00, 0.00
233, -187500.02, 89279.39, -187500.02, -187500.02, -187500.02, -187500.02, -145950.34, -187500.02, 0.07, 0.00, 0.00
234, -187500.02, 89277.83, -187500.02, -187500.02, -187500.02, -187500.02, -145949.94, -187500.02, 0.07, 0.00, 0.00
235, -187500.02, 89273.67, -187500.02, -187500.02, -187500.02, -187500.02, -145949.72, -187500.02, 0.07, 0.00, 0.00
236, -187500.02, 89263.72, -187500.02, -187500.02, -187500.02, -187500.02, -145948.92, -187500.02, 0.07, 0.00, 0.00
237, -187500.02, 89255.84, -187500.02, -187500.02, -187500.02, -187500.02, -145947.44, -187500.02, 0.07, 0.00, 0.00
238, -187500.02, 89255.61, -187500.02, -187500.02, -187500.02, -187500.02, -145948.91, -187500.02, 0.07, 0.00, 0.00
239, -187500.02, 89257.62, -187500.02, -187500.02, -187500.02, -187500.02, -145953.69, -187500.02, 0.07, 0.00, 0.00
240, -187500.02, 89247.00, -187500.02, -187500.02, -187500.02, -187500.02, -145951.75, -187500.02, 0.07, 0.00, 0.00
241, -187500.02, 89236.16, -187500.02, -187500.02, -187500.02, -187500.02, -145948.11, -187500.02, 0.07, 0.00, 0.00
242, -187500.02, 89236.16, -187500.02, -187500.02, -187500.02, -187500.02, -145950.45, -187500.02, 0.07, 0.00, 0.00
243, -187500.02, 89237.66, -187500.02, -187500.02, -187500.02, -187500.02, -145953.84, -187500.02, 0.07, 0.00, 0.00
244, -187500.02, 89227.24, -187500.02, -187500.02, -187500.02, -187500.02, -145951.56, -187500.02, 0.07, 0.00, 0.00
245, -187500.02, 89215.95, -187500.02, -187500.02, -187500.02, -187500.02, -145948.19, -187500.02, 0.07, 0.00, 0.00
246, -187500.02, 89214.19, -187500.02, -187500.02, -187500.02, -187500.02, -145949.59, -187500.02, 0.07, 0.00, 0.00
247, -187500.02, 89215.66, -187500.02, -187500.02, -187500.02, -187500.02, -145952.19, -187500.02, 0.07, 0.00, 0.00
248, -187500.02, 89206.55, -187500.02, -187500.02, -187500.02, -187500.02, -145950.09, -187500.02, 0.07, 0.00, 0.00
249, -187500.02, 89193.52, -187500.02, -187500.02, -187500.02, -187500.02, -145945.67, -187500.02, 0.07, 0.00, 0.00
250, -187500.02, 89190.72, -187500.02, -187500.02, -187500.02, -187500.02, -145947.05, -187500.02, 0.07, 0.00, 0.00
251, -187500.02, 89193.36, -187500.02, -187500.02, -187500.02, -187500.02, -145950.47, -187500.02, 0.07, 0.00, 0.00
252, -187500.02, 89188.22, -187500.02, -187500.02, -187500.02, -187500.02, -145951.50, -187500.02, 0.07, 0.00, 0.00
253, -187500.02, 89174.45, -187500.02, -187500.02, -187500.02, -187500.02, -145946.63, -187500.02, 0.07, 0.00, 0.00
254, -187500.02, 89168.03, -187500.02, -187500.02, -187500.02, -187500.02, -145945.13, -187500.02, 0.06, 0.00, 0.00
255, -187500.02, 89169.87, -187500.02, -187500.02, -187500.02, -187500.02, -145947.98, -187500.02, 0.06, 0.00, 0.00
0, -187500.02, 89168.80, -187500.02, -187500.02, -187500.02, -187500.02, -145951.59, -187500.02, 0.07, 0.00, 0.00
1, -187500.02, 89156.66, -187500.02, -187500.02, -187500.02, -187500.02, -145948.61, -187500.02, 0.07, 0.00, 0.00
2, -187500.02, 89149.84, -187500.02, -187500.02, -187500.02, -187500.02, -145947.59, -187500.02, 0.07, 0.00, 0.00
3, -187500.02, 89148.61, -187500.02, -187500.02, -187500.02, -187500.02, -145947.66, -187500.02, 0.07, 0.00, 0.00
4, -187500.02, 89146.48, -187500.02, -187500.02, -187500.02, -187500.02, -145949.11, -187500.02, 0.07, 0.00, 0.00
5, -187500.02, 89137.46, -187500.02, -187500.02, -187500.02, -187500.02, -145949.08, -187500.02, 0.06, 0.00, 0.00
6, -187500.02, 89128.47, -187500.02, -187500.02, -187500.02, -187500.02, -145946.77, -187500.02, 0.06, 0.00, 0.00
7, -187500.02, 89126.55, -187500.02, -187500.02, -187500.02, -187500.02, -145946.72, -187500.02, 0.06, 0.00, 0.00
8, -187500.02, 89126.13, -187500.02, -187500.02, -187500.02, -187500.02, -145948.59, -187500.02, 0.06, 0.00, 0.00
9, -187500.02, 89117.59, -187500.02, -187500.02, -187500.02, -187500.02, -145948.59, -187500.02, 0.06, 0.00, 0.00
10, -187500.02, 89107.82, -187500.02, -187500.02, -187500.02, -187500.02, -145946.27, -187500.02, 0.06, 0.00, 0.00
11, -187500.02, 89107.80, -187500.02, -187500.02, -187500.02, -187500.02, -145948.86, -187500.02, 0.06, 0.00, 0.00
12, -187500.02, 89106.52, -187500.02, -187500.02, -187500.02, -187500.02, -145949.27, -187500.02, 0.06, 0.00, 0.00
13, -187500.02, 89093.16, -187500.02, -187500.02, -187500.02, -187500.02, -145943.72, -187500.02, 0.06, 0.00, 0.00
14, -187500.02, 89084.17, -187500.02, -187500.02, -187500.02, -187500.02, -145942.94, -187500.02, 0.06, 0.00, 0.00
15, -187500.02, 89082.18, -187500.02, -187500.02, -187500.02, -187500.02, -145944.33, -187500.02, 0.06, 0.00, 0.00
16, -187500.02, 89082.61, -187500.02, -187500.02, -187500.02, -187500.02, -145945.67, -187500.02, 0.06, 0.00, 0.00
17, -187500.02, 89075.37, -187500.02, -187500.02, -187500.02, -187500.02, -145945.05, -187500.02, 0.06, 0.00, 0.00
18, -187500.02, 89065.30, -187500.02, -187500.02, -187500.02, -187500.02, -145943.86, -187500.02, 0.06, 0.00, 0.00
19, -187500.02, 89062.22, -187500.02, -187500.02, -187500.02, -187500.02, -145945.05, -187500.02, 0.06, 0.00, 0.00
20, -187500.02, 89060.30, -187500.02, -187500.02, -187500.02, -187500.02, -145944.19, -187500.02, 0.06, 0.00, 0.00
21, -187500.02, 89055.25, -187500.02, -187500.02, -187500.02, -187500.02, -145944.80, -187500.02, 0.06, 0.00, 0.00
22, -187500.02, 89045.91, -187500.02, -187500.02, -187500.02, -187500.02, -145944.56, -187500.02, 0.06, 0.00, 0.00
23, -187500.02, 89039.96, -187500.02, -187500.02, -187500.02, -187500.02, -145943.75, -187500.02, 0.06, 0.00, 0.00
24, -187500.02, 89041.10, -187500.02, -187500.02, -187500.02, -187500.02, -145945.83, -187500.02, 0.06, 0.00, 0.00
25, -187500.02, 89040.96, -187500.02, -187500.02, -187500.02, -187500.02, -145949.89, -187500.02, 0.05, 0.00, 0.00
26, -187500.02, 89030.70, -187500.02, -187500.02, -187500.02, -187500.02, -145948.77, -187500.02, 0.05, 0.00, 0.00
27, -187500.02, 89020.76, -187500.02, -187500.02, -187500.02, -187500.02, -145945.02, -187500.02, 0.05, 0.00, 0.00
28, -187500.02, 89017.65, -187500.02, -187500.02, -187500.02, -187500.02, -145943.52, -187500.02, 0.05, 0.00, 0.00
29, -187500.02, 89014.32, -187500.02, -187500.02, -187500.02, -187500.02, -145943.20, -187500.02, 0.05, 0.00, 0.00
30, -187500.02, 89004.45, -187500.02, -187500.02, -187500.02, -187500.02, -145942.17, -187500.02, 0.05, 0.00, 0.00
31, -187500.02, 88997.55, -187500.02, -187500.02, -187500.02, -187500.02, -145942.36, -187500.02, 0.05, 0.00, 0.00
32, -187500.02, 88995.73, -187500.02, -187500.02, -187500.02, -187500.02, -145942.53, -187500.02, 0.05, 0.00, 0.00
33, -187500.02, 88995.32, -187500.02, -187500.02, -187500.02, -187500.02, -145944.08, -187500.02, 0.05, 0.00, 0.00
34, -187500.02, 88987.57, -187500.02, -187500.02, -187500.02, -187500.02, -145944.64, -187500.02, 0.05, 0.00, 0.00
35, -187500.02, 88978.89, -187500.02, -187500.02, -187500.02, -187500.02, -145943.83, -187500.02, 0.05, 0.00, 0.00
36, -187500.02, 88973.93, -187500.02, -187500.02, -187500.02, -187500.02, -145941.83, -187500.02, 0.05, 0.00, 0.00
37, -187500.02, 88975.99, -187500.02, -187500.02, -187500.02, -187500.02, -145945.17, -187500.02, 0.05, 0.00, 0.00
38, -187500.02, 88969.95, -187500.02, -187500.02, -187500.02, -187500.02, -145946.47, -187500.02, 0.05, 0.00, 0.00
39, -187500.02, 88957.15, -187500.02, -187500.02, -187500.02, -187500.02, -145942.22, -187500.02, 0.05, 0.00, 0.00
40, -187500.02, 88951.73, -187500.02, -187500.02, -187500.02, -187500.02, -145940.50, -187500.02, 0.05, 0.00, 0.00
41, -187500.02, 88950.62, -187500.02, -187500.02, -187500.02, -187500.02, -145940.23, -187500.02, 0.05, 0.00, 0.00
42, -187500.02, 88945.39, -187500.02, -187500.02, -187500.02, -187500.02, -145941.38, -187500.02, 0.06, 0.00, 0.00
43, -187500.02, 88937.86, -187500.02, -187500.02, -187500.02, -187500.02, -145942.73, -187500.02, 0.05, 0.00, 0.00
44, -187500.02, 88933.09, -187500.02, -187500.02, -187500.02, -187500.02, -145942.73, -187500.02, 0.05, 0.00, 0.00
45, -187500.02, 88932.18, -187500.02, -187500.02, -187500.02, -187500.02, -145942.83, -187500.02, 0.05, 0.00, 0.00
46, -187500.02, 88927.51, -187500.02, -187500.02, -187500.02, -187500.02, -145943.19, -187500.02, 0.05, 0.00, 0.00
47, -187500.02, 88917.16, -187500.02, -187500.02, -187500.02, -187500.02, -145942.00, -187500.02, 0.05, 0.00, 0.00
48, -187500.02, 88911.10, -187500.02, -187500.02, -187500.02, -187500.02, -145941.28, -187500.02, 0.05, 0.00, 0.00
49, -187500.02, 88910.97, -187500.02, -187500.02, -187500.02, -187500.02, -145942.31, -187500.02, 0.05, 0.00, 0.00
50, -187500.02, 88904.98, -187500.02, -187500.02, -187500.02, -187500.02, -145940.14, -187500.02, 0.05, 0.00, 0.00
51, -187500.02, 88891.30, -187500.02, -187500.02, -187500.02, -187500.02, -145935.56, -187500.02, 0.05, 0.00, 0.00
52, -187500.02, 88884.44, -187500.02, -187500.02, -187500.02, -187500.02, -145935.27, -187500.02, 0.05, 0.00, 0.00
53, -187500.02, 88883.99, -187500.02, -187500.02, -187500.02, -187500.02, -145936.64, -187500.02, 0.05, 0.00, 0.00
54, -187500.02, 88883.01, -187500.02, -187500.02, -187500.02, -187500.02, -145938.30, -187500.02, 0.05, 0.00, 0.00
55, -187500.02, 88873.20, -187500.02, -187500.02, -187500.02, -187500.02, -145937.13, -187500.02, 0.05, 0.00, 0.00
56, -187500.02, 88867.27, -187500.02, -187500.02, -187500.02, -187500.02, -145938.36, -187500.02, 0.06, 0.00, 0.00
57, -187500.02, 88867.54, -187500.02, -187500.02, -187500.02, -187500.02, -145941.00, -187500.02, 0.06, 0.00, 0.00
58, -187500.02, 88866.48, -187500.02, -187500.02, -187500.02, -187500.02, -145941.70, -187500.02, 0.05, 0.00, 0.00
59, -187500.02, 88856.45, -187500.02, -187500.02, -187500.02, -187500.02, -145939.70, -187500.02, 0.05, 0.00, 0.00
60, -187500.02, 88845.97, -187500.02, -187500.02, -187500.02, -187500.02, -145937.42, -187500.02, 0.06, 0.00, 0.00
61, -187500.02, 88843.11, -187500.02, -187500.02, -187500.02, -187500.02, -145937.86, -187500.02, 0.06, 0.00, 0.00
62, -187500.02, 88842.39, -187500.02, -187500.02, -187500.02, -187500.02, -145938.27, -187500.02, 0.06, 0.00, 0.00
63, -187500.02, 88834.34, -187500.02, -187500.02, -187500.02, -187500.02, -145937.16, -187500.02, 0.06, 0.00, 0.00
64, -187500.02, 88823.62, -187500.02, -187500.02, -187500.02, -187500.02, -145934.92, -187500.02, 0.06, 0.00, 0.00
65, -187500.02, 88816.55, -187500.02, -187500.02, -187500.02, -187500.02, -145931.97, -187500.02, 0.06, 0.00, 0.00
66, -187500.02, 88816.35, -187500.02, -187500.02, -187500.02, -187500.02, -145932.67, -187500.02, 0.06, 0.00, 0.00
67, -187500.02, 88812.59, -187500.02, -187500.02, -187500.02, -187500.02, -145934.72, -187500.02, 0.06, 0.00, 0.00
68, -187500.02, 88804.02, -187500.02, -187500.02, -187500.02, -187500.02, -145935.25, -187500.02, 0.06, 0.00, 0.00
69, -187500.02, 88797.58, -187500.02, -187500.02, -187500.02, -187500.02, -145933.78, -187500.02, 0.06, 0.00, 0.00
70, -187500.02, 88798.90, -187500.02, -187500.02, -187500.02, -187500.02, -145936.08, -187500.02, 0.06, 0.00, 0.00
71, -187500.02, 88794.49, -187500.02, -187500.02, -187500.02, -187500.02, -145936.25, -187500.02, 0.06, 0.00, 0.00
72, -187500.02, 88781.10, -187500.02, -187500.02, -187500.02, -187500.02, -145931.88, -187500.02, 0.06, 0.00, 0.00
73, -187500.02, 88773.93, -187500.02, -187500.02, -187500.02, -187500.02, -145930.56, -187500.02, 0.06, 0.00, 0.00
74, -187500.02, 88774.06, -187500.02, -187500.02, -187500.02, -187500.02, -145931.98, -187500.02, 0.06, 0.00, 0.00
75, -187500.02, 88772.03, -187500.02, -187500.02, -187500.02, -187500.02, -145933.23, -187500.02, 0.06, 0.00, 0.00
76, -187500.02, 88763.60, -187500.02, -187500.02, -187500.02, -187500.02, -145934.11, -187500.02, 0.06, 0.00, 0.00
77, -187500.02, 88757.27, -187500.02, -187500.02, -187500.02, -187500.02, -145934.52, -187500.02, 0.06, 0.00, 0.00
78, -187500.02, 88757.27, -187500.02, -187500.02, -187500.02, -187500.02, -145936.45, -187500.02, 0.06, 0.00, 0.00
79, -187500.02, 88756.38, -187500.02, -187500.02, -187500.02, -187500.02, -145937.86, -187500.02, 0.06, 0.00, 0.00
80, -187500.02, 88743.27, -187500.02, -187500.02, -187500.02, -187500.02, -145933.06, -187500.02, 0.06, 0.00, 0.00
81, -187500.02, 88735.15, -187500.02, -187500.02, -187500.02, -187500.02, -145932.52, -187500.02, 0.06, 0.00, 0.00
82, -187500.02, 88732.47, -187500.02, -187500.02, -187500.02, -187500.02, -145932.52, -187500.02, 0.07, 0.00, 0.00
83, -187500.02, 88730.61, -187500.02, -187500.02, -187500.02, -187500.02, -145932.20, -187500.02, 0.07, 0.00, 0.00
84, -187500.02, 88721.45, -187500.02, -187500.02, -187500.02, -187500.02, -145930.84, -187500.02, 0.07, 0.00, 0.00
85, -187500.02, 88712.57, -187500.02, -187500.02, -187500.02, -187500.02, -145930.17, -187500.02, 0.07, 0.00, 0.00
86, -187500.02, 88707.08, -187500.02, -187500.02, -187500.02, -187500.02, -145928.19, -187500.02, 0.07, 0.00, 0.00
87, -187500.02, 88707.12, -187500.02, -187500.02, -187500.02, -187500.02, -145929.19, -187500.02, 0.07, 0.00, 0.00
88, -187500.02, 88699.63, -187500.02, -187500.02, -187500.02, -187500.02, -145928.20, -187500.02, 0.07, 0.00, 0.00
89, -187500.02, 88688.79, -187500.02, -187500.02, -187500.02, -187500.02, -145926.28, -187500.02, 0.07, 0.00, 0.00
90, -187500.02, 88683.18, -187500.02, -187500.02, -187500.02, -187500.02, -145925.02, -187500.02, 0.07, 0.00, 0.00
91, -187500.02, 88685.70, -187500.02, -187500.02, -187500.02, -187500.02, -145928.48, -187500.02, 0.07, 0.00, 0.00
92, -187500.02, 88679.41, -187500.02, -187500.02, -187500.02, -187500.02, -145927.61, -187500.02, 0.07, 0.00, 0.00
93, -187500.02, 88667.78, -187500.02, -187500.02, -187500.02, -187500.02, -145925.19, -187500.02, 0.07, 0.00, 0.00
94, -187500.02, 88661.92, -187500.02, -187500.02, -187500.02, -187500.02, -145924.67, -187500.02, 0.07, 0.00, 0.00
95, -187500.02, 88661.34, -187500.02, -187500.02, -187500.02, -187500.02, -145925.17, -187500.02, 0.07, 0.00, 0.00
96, -187500.02, 88658.21, -187500.02, -187500.02, -187500.02, -187500.02, -145925.91, -187500.02, 0.07, 0.00, 0.00
97, -187500.02, 88646.99, -187500.02, -187500.02, -187500.02, -187500.02, -145923.72, -187500.02, 0.07, 0.00, 0.00
98, -187500.02, 88639.21, -187500.02, -187500.02, -187500.02, -187500.02, -145922.22, -187500.02, 0.07, 0.00, 0.00
99, -187500.02, 88638.50, -187500.02, -187500.02, -187500.02, -187500.02, -145923.22, -187500.02, 0.07, 0.00, 0.00
100, -187500.02, 88636.24, -187500.02, -187500.02, -187500.02, -187500.02, -145923.89, -187500.02, 0.07, 0.00, 0.00
101, -187500.02, 88626.83, -187500.02, -187500.02, -187500.02, -187500.02, -145923.30, -187500.02, 0.07, 0.00, 0.00
102, -187500.02, 88618.47, -187500.02, -187500.02, -187500.02, -187500.02, -145922.06, -187500.02, 0.07, 0.00, 0.00
103, -187500.02, 88617.96, -187500.02, -187500.02, -187500.02, -187500.02, -145923.89, -187500.02, 0.07, 0.00, 0.00
104, -187500.02, 88618.83, -187500.02, -187500.02, -187500.02, -187500.02, -145926.44, -187500.02, 0.07, 0.00, 0.00
105, -187500.02, 88607.97, -187500.02, -187500.02, -187500.02, -187500.02, -145923.67, -187500.02, 0.07, 0.00, 0.00
106, -187500.02, 88598.53, -187500.02, -187500.02, -187500.02, -187500.02, -145922.16, -187500.02, 0.07, 0.00, 0.00
107, -187500.02, 88596.48, -187500.02, -187500.02, -187500.02, -187500.02, -145923.27, -187500.02, 0.07, 0.00, 0.00
108, -187500.02, 88599.72, -187500.02, -187500.02, -187500.02, -187500.02, -145927.84, -187500.02, 0.07, 0.00, 0.00
109, -187500.02, 88591.60, -187500.02, -187500.02, -187500.02, -187500.02, -145926.91, -187500.02, 0.07, 0.00, 0.00
110, -187500.02, 88579.60, -187500.02, -187500.02, -187500.02, -187500.02, -145923.52, -187500.02, 0.07, 0.00, 0.00
111, -187500.02, 88575.96, -187500.02, -187500.02, -187500.02, -187500.02, -145923.67, -187500.02, 0.07, 0.00, 0.00
112, -187500.02, 88575.24, -187500.02, -187500.02, -187500.02, -187500.02, -145923.67, -187500.02, 0.07, 0.00, 0.00
113, -187500.02, 88569.09, -187500.02, -187500.02, -187500.02, -187500.02, -145923.67, -187500.02, 0.07, 0.00, 0.00
114, -187500.02, 88559.87, -187500.02, -187500.02, -187500.02, -187500.02, -145923.41, -187500.02, 0.07, 0.00, 0.00
115, -187500.02, 88554.28, -187500.02, -187500.02, -187500.02, -187500.02, -145922.63, -187500.02, 0.07, 0.00, 0.00
116, -187500.02, 88553.85, -187500.02, -187500.02, -187500.02, -187500.02, -145923.16, -187500.02, 0.07, 0.00, 0.00
117, -187500.02, 88549.90, -187500.02, -187500.02, -187500.02, -187500.02, -145924.13, -187500.02, 0.07, 0.00, 0.00
118, -187500.02, 88539.70, -187500.02, -187500.02, -187500.02, -187500.02, -145923.11, -187500.02, 0.07, 0.00, 0.00
119, -187500.02, 88534.05, -187500.02, -187500.02, -187500.02, -187500.02, -145923.05, -187500.02, 0.07, 0.00, 0.00
120, -187500.02, 88533.65, -187500.02, -187500.02, -187500.02, -187500.02, -145923.73, -187500.02, 0.07, 0.00, 0.00
121, -187500.02, 88532.51, -187500.02, -187500.02, -187500.02, -187500.02, -145926.17, -187500.02, 0.07, 0.00, 0.00
122, -187500.02, 88521.13, -187500.02, -187500.02, -187500.02, -187500.02, -145923.97, -187500.02, 0.07, 0.00, 0.00
123, -187500.02, 88510.98, -187500.02, -187500.02, -187500.02, -187500.02, -145920.41, -187500.02, 0.07, 0.00, 0.00
124, -187500.02, 88511.45, -187500.02, -187500.02, -187500.02, -187500.02, -145922.75, -187500.02, 0.07, 0.00, 0.00
125, -187500.02, 88512.01, -187500.02, -187500.02, -187500.02, -187500.02, -145925.80, -187500.02, 0.07, 0.00, 0.00
126, -187500.02, 88502.60, -187500.02, -187500.02, -187500.02, -187500.02, -145925.02, -187500.02, 0.07, 0.00, 0.00
127, -187500.02, 88491.24, -187500.02, -187500.02, -187500.02, -187500.02, -145921.03, -187500.02, 0.07, 0.00, 0.00
128, -187500.02, 88489.63, -187500.02, -187500.02, -187500.02, -187500.02, -145921.92, -187500.02, 0.07, 0.00, 0.00
129, -187500.02, 88490.93, -187500.02, -187500.02, -187500.02, -187500.02, -145924.81, -187500.02, 0.07, 0.00, 0.00
130, -187500.02, 88483.71, -187500.02, -187500.02, -187500.02, -187500.02, -145925.39, -187500.02, 0.07, 0.00, 0.00
131, -187500.02, 88473.43, -187500.02, -187500.02, -187500.02, -187500.02, -145923.41, -187500.02, 0.07, 0.00, 0.00
132, -187500.02, 88469.23, -187500.02, -187500.02, -187500.02, -187500.02, -145922.63, -187500.02, 0.07, 0.00, 0.00
133, -187500.02, 88470.26, -187500.02, -187500.02, -187500.02, -187500.02, -145924.61, -187500.02, 0.07, 0.00, 0.00
134, -187500.02, 88461.92, -187500.02, -187500.02, -187500.02, -187500.02, -145923.16, -187500.02, 0.07, 0.00, 0.00
135, -187500.02, 88450.74, -187500.02, -187500.02, -187500.02, -187500.02, -145920.56, -187500.02, 0.07, 0.00, 0.00
136, -187500.02, 88445.83, -187500.02, -187500.02, -187500.02, -187500.02, -145919.72, -187500.02, 0.07, 0.00, 0.00
137, -187500.02, 88449.63, -187500.02, -187500.02, -187500.02, -187500.02, -145924.52, -187500.02, 0.07, 0.00, 0.00
138, -187500.02, 88443.86, -187500.02, -187500.02, -187500.02, -187500.02, -145924.41, -187500.02, 0.07, 0.00, 0.00
139, -187500.02, 88429.91, -187500.02, -187500.02, -187500.02, -187500.02, -145919.52, -187500.02, 0.07, 0.00, 0.00
140, -187500.02, 88420.55, -187500.02, -187500.02, -187500.02, -187500.02, -145915.31, -187500.02, 0.07, 0.00, 0.00
141, -187500.02, 88423.30, -187500.02, -187500.02, -187500.02, -187500.02, -145919.11, -187500.02, 0.07, 0.00, 0.00
142, -187500.02, 88419.90, -187500.02, -187500.02, -187500.02, -187500.02, -145920.08, -187500.02, 0.07, 0.00, 0.00
143, -187500.02, 88409.46, -187500.02, -187500.02, -187500.02, -187500.02, -145918.70, -187500.02, 0.07, 0.00, 0.00
144, -187500.02, 88403.34, -187500.02, -187500.02, -187500.02, -187500.02, -145918.58, -187500.02, 0.07, 0.00, 0.00
145, -187500.02, 88403.90, -187500.02, -187500.02, -187500.02, -187500.02, -145920.50, -187500.02, 0.07, 0.00, 0.00
146, -187500.02, 88402.45, -187500.02, -187500.02, -187500.02, -187500.02, -145922.20, -187500.02, 0.07, 0.00, 0.00
147, -187500.02, 88392.83, -187500.02, -187500.02, -187500.02, -187500.02, -145921.59, -187500.02, 0.07, 0.00, 0.00
148, -187500.02, 88383.47, -187500.02, -187500.02, -187500.02, -187500.02, -145919.17, -187500.02, 0.07, 0.00, 0.00
149, -187500.02, 88379.42, -187500.02, -187500.02, -187500.02, -187500.02, -145917.25, -187500.02, 0.07, 0.00, 0.00
150, -187500.02, 88380.00, -187500.02, -187500.02, -187500.02, -187500.02, -145919.98, -187500.02, 0.06, 0.00, 0.00
151, -187500.02, 88371.48, -187500.02, -187500.02, -187500.02, -187500.02, -145919.84, -187500.02, 0.06, 0.00, 0.00
152, -187500.02, 88362.84, -187500.02, -187500.02, -187500.02, -187500.02, -145918.75, -187500.02, 0.06, 0.00, 0.00
153, -187500.02, 88360.89, -187500.02, -187500.02, -187500.02, -187500.02, -145919.53, -187500.02, 0.06, 0.00, 0.00
154, -187500.02, 88360.82, -187500.02, -187500.02, -187500.02, -187500.02, -145920.72, -187500.02, 0.06, 0.00, 0.00
155, -187500.02, 88351.23, -187500.02, -187500.02, -187500.02, -187500.02, -145918.73, -187500.02, 0.07, 0.00, 0.00
156, -187500.02, 88341.53, -187500.02, -187500.02, -187500.02, -187500.02, -145917.48, -187500.02, 0.07, 0.00, 0.00
157, -187500.02, 88337.73, -187500.02, -187500.02, -187500.02, -187500.02, -145917.30, -187500.02, 0.07, 0.00, 0.00
158, -187500.02, 88336.73, -187500.02, -187500.02, -187500.02, -187500.02, -145917.22, -187500.02, 0.06, 0.00, 0.00
159, -187500.02, 88330.80, -187500.02, -187500.02, -187500.02, -187500.02, -145917.69, -187500.02, 0.06, 0.00, 0.00
160, -187500.02, 88318.24, -187500.02, -187500.02, -187500.02, -187500.02, -145913.95, -187500.02, 0.07, 0.00, 0.00
161, -187500.02, 88312.52, -187500.02, -187500.02, -187500.02, -187500.02, -145912.89, -187500.02, 0.07, 0.00, 0.00
162, -187500.02, 88313.86, -187500.02, -187500.02, -187500.02, -187500.02, -145915.14, -187500.02, 0.07, 0.00, 0.00
163, -187500.02, 88308.54, -187500.02, -187500.02, -187500.02, -187500.02, -145914.89, -187500.02, 0.07, 0.00, 0.00
164, -187500.02, 88296.85, -187500.02, -187500.02, -187500.02, -187500.02, -145912.45, -187500.02, 0.07, 0.00, 0.00
165, -187500.02, 88289.97, -187500.02, -187500.02, -187500.02, -187500.02, -145911.11, -187500.02, 0.07, 0.00, 0.00
166, -187500.02, 88295.40, -187500.02, -187500.02, -187500.02, -187500.02, -145917.59, -187500.02, 0.07, 0.00, 0.00
167, -187500.02, 88295.11, -187500.02, -187500.02, -187500.02, -187500.02, -145921.17, -187500.02, 0.07, 0.00, 0.00
168, -187500.02, 88280.73, -187500.02, -187500.02, -187500.02, -187500.02, -145915.84, -187500.02, 0.07, 0.00, 0.00
169, -187500.02, 88271.98, -187500.02, -187500.02, -187500.02, -187500.02, -145913.39, -187500.02, 0.07, 0.00, 0.00
170, -187500.02, 88271.57, -187500.02, -187500.02, -187500.02, -187500.02, -145914.73, -187500.02, 0.07, 0.00, 0.00
171, -187500.02, 88272.42, -187500.02, -187500.02, -187500.02, -187500.02, -145918.17, -187500.02, 0.07, 0.00, 0.00
172, -187500.02, 88260.45, -187500.02, -187500.02, -187500.02, -187500.02, -145915.02, -187500.02, 0.07, 0.00, 0.00
173, -187500.02, 88250.70, -187500.02, -187500.02, -187500.02, -187500.02, -145912.55, -187500.02, 0.07, 0.00, 0.00
174, -187500.02, 88249.02, -187500.02, -187500.02, -187500.02, -187500.02, -145913.28, -187500.02, 0.07, 0.00, 0.00
175, -187500.02, 88245.13, -187500.02, -187500.02, -187500.02, -187500.02, -145911.06, -187500.02, 0.07, 0.00, 0.00
176, -187500.02, 88237.11, -187500.02, -187500.02, -187500.02, -187500.02, -145911.05, -187500.02, 0.07, 0.00, 0.00
177, -187500.02, 88228.73, -187500.02, -187500.02, -187500.02, -187500.02, -145910.55, -187500.02, 0.07, 0.00, 0.00
178, -187500.02, 88227.27, -187500.02, -187500.02, -187500.02, -187500.02, -145912.16, -187500.02, 0.07, 0.00, 0.00
179, -187500.02, 88230.91, -187500.02, -187500.02, -187500.02, -187500.02, -145916.88, -187500.02, 0.07, 0.00, 0.00
180, -187500.02, 88223.05, -187500.02, -187500.02, -187500.02, -187500.02, -145916.27, -187500.02, 0.07, 0.00, 0.00
181, -187500.02, 88211.91, -187500.02, -187500.02, -187500.02, -187500.02, -145913.86, -187500.02, 0.07, 0.00, 0.00
182, -187500.02, 88207.22, -187500.02, -187500.02, -187500.02, -187500.02, -145913.13, -187500.02, 0.07, 0.00, 0.00
183, -187500.02, 88211.47, -187500.02, -187500.02, -187500.02, -187500.02, -145918.27, -187500.02, 0.07, 0.00, 0.00
184, -187500.02, 88203.09, -187500.02, -187500.02, -187500.02, -187500.02, -145915.63, -187500.02, 0.07, 0.00, 0.00
185, -187500.02, 88188.29, -187500.02, -187500.02, -187500.02, -187500.02, -145909.95, -187500.02, 0.06, 0.00, 0.00
186, -187500.02, 88183.40, -187500.02, -187500.02, -187500.02, -187500.02, -145909.97, -187500.02, 0.06, 0.00, 0.00
187, -187500.02, 88186.08, -187500.02, -187500.02, -187500.02, -187500.02, -145913.56, -187500.02, 0.06, 0.00, 0.00
188, -187500.02, 88182.86, -187500.02, -187500.02, -187500.02, -187500.02, -145914.95, -187500.02, 0.07, 0.00, 0.00
189, -187500.02, 88170.70, -187500.02, -187500.02, -187500.02, -187500.02, -145912.00, -187500.02, 0.07, 0.00, 0.00
190, -187500.02, 88162.52, -187500.02, -187500.02, -187500.02, -187500.02, -145909.72, -187500.02, 0.07, 0.00, 0.00
191, -187500.02, 88163.68, -187500.02, -187500.02, -187500.02, -187500.02, -145912.23, -187500.02, 0.07, 0.00, 0.00
192, -187500.02, 88162.56, -187500.02, -187500.02, -187500.02, -187500.02, -145914.39, -187500.02, 0.06, 0.00, 0.00
193, -187500.02, 88151.09, -187500.02, -187500.02, -187500.02, -187500.02, -145911.95, -187500.02, 0.07, 0.00, 0.00
194, -187500.02, 88142.88, -187500.02, -187500.02, -187500.02, -187500.02, -145910.39, -187500.02, 0.07, 0.00, 0.00
195, -187500.02, 88140.10, -187500.02, -187500.02, -187500.02, -187500.02, -145909.48, -187500.02, 0.07, 0.00, 0.00
196, -187500.02, 88139.67, -187500.02, -187500.02, -187500.02, -187500.02, -145911.42, -187500.02, 0.07, 0.00, 0.00
197, -187500.02, 88132.57, -187500.02, -187500.02, -187500.02, -187500.02, -145912.78, -187500.02, 0.07, 0.00, 0.00
198, -187500.02, 88123.34, -187500.02, -187500.02, -187500.02, -187500.02, -145911.17, -187500.02, 0.07, 0.00, 0.00
199, -187500.02, 88120.27, -187500.02, -187500.02, -187500.02, -187500.02, -145910.86, -187500.02, 0.06, 0.00, 0.00
200, -187500.02, 88123.65, -187500.02, -187500.02, -187500.02, -187500.02, -145915.61, -187500.02, 0.06, 0.00, 0.00
201, -187500.02, 88113.84, -187500.02, -187500.02, -187500.02, -187500.02, -145913.44, -187500.02, 0.07, 0.00, 0.00
202, -187500.02, 88102.03, -187500.02, -187500.02, -187500.02, -187500.02, -145909.92, -187500.02, 0.07, 0.00, 0.00
203, -187500.02, 88096.45, -187500.02, -187500.02, -187500.02, -187500.02, -145907.84, -187500.02, 0.07, 0.00, 0.00
204, -187500.02, 88097.30, -187500.02, -187500.02, -187500.02, -187500.02, -145909.67, -187500.02, 0.07, 0.00, 0.00
205, -187500.02, 88089.97, -187500.02, -187500.02, -187500.02, -187500.02, -145908.98, -187500.02, 0.06, 0.00, 0.00
206, -187500.02, 88077.41, -187500.02, -187500.02, -187500.02, -187500.02, -145905.39, -187500.02, 0.06, 0.00, 0.00
207, -187500.02, 88068.09, -187500.02, -187500.02, -187500.02, -187500.02, -145900.38, -187500.02, 0.06, 0.00, 0.00
208, -187500.02, 88069.94, -187500.02, -187500.02, -187500.02, -187500.02, -145902.92, -187500.02, 0.07, 0.00, 0.00
209, -187500.02, 88066.02, -187500.02, -187500.02, -187500.02, -187500.02, -145904.42, -187500.02, 0.07, 0.00, 0.00
210, -187500.02, 88054.34, -187500.02, -187500.02, -187500.02, -187500.02, -145901.88, -187500.02, 0.07, 0.00, 0.00
211, -187500.02, 88048.19, -187500.02, -187500.02, -187500.02, -187500.02, -145901.13, -187500.02, 0.07, 0.00, 0.00
212, -187500.02, 88048.52, -187500.02, -187500.02, -187500.02, -187500.02, -145902.55, -187500.02, 0.06, 0.00, 0.00
213, -187500.02, 88046.05, -187500.02, -187500.02, -187500.02, -187500.02, -145904.11, -187500.02, 0.06, 0.00, 0.00
214, -187500.02, 88035.94, -187500.02, -187500.02, -187500.02, -187500.02, -145903.17, -187500.02, 0.06, 0.00, 0.00
215, -187500.02, 88028.74, -187500.02, -187500.02, -187500.02, -187500.02, -145902.13, -187500.02, 0.06, 0.00, 0.00
216, -187500.02, 88028.03, -187500.02, -187500.02, -187500.02, -187500.02, -145902.80, -187500.02, 0.07, 0.00, 0.00
217, -187500.02, 88025.93, -187500.02, -187500.02, -187500.02, -187500.02, -145903.59, -187500.02, 0.06, 0.00, 0.00
218, -187500.02, 88015.87, -187500.02, -187500.02, -187500.02, -187500.02, -145902.38, -187500.02, 0.06, 0.00, 0.00
219, -187500.02, 88006.55, -187500.02, -187500.02, -187500.02, -187500.02, -145900.25, -187500.02, 0.06, 0.00, 0.00
220, -187500.02, 88006.59, -187500.02, -187500.02, -187500.02, -187500.02, -145902.39, -187500.02, 0.06, 0.00, 0.00
221, -187500.02, 88008.18, -187500.02, -187500.02, -187500.02, -187500.02, -145905.95, -187500.02, 0.06, 0.00, 0.00
222, -187500.02, 88000.18, -187500.02, -187500.02, -187500.02, -187500.02, -145906.30, -187500.02, 0.06, 0.00, 0.00
223, -187500.02, 87989.98, -187500.02, -187500.02, -187500.02, -187500.02, -145903.89, -187500.02, 0.06, 0.00, 0.00
224, -187500.02, 87986.66, -187500.02, -187500.02, -187500.02, -187500.02, -145903.39, -187500.02, 0.06, 0.00, 0.00
225, -187500.02, 87985.49, -187500.02, -187500.02, -187500.02, -187500.02, -145903.42, -187500.02, 0.06, 0.00, 0.00
226, -187500.02, 87980.58, -187500.02, -187500.02, -187500.02, -187500.02, -145906.02, -187500.02, 0.06, 0.00, 0.00
227, -187500.02, 87968.48, -187500.02, -187500.02, -187500.02, -187500.02, -145902.33, -187500.02, 0.06, 0.00, 0.00
228, -187500.02, 87961.89, -187500.02, -187500.02, -187500.02, -187500.02, -145899.53, -187500.02, 0.06, 0.00, 0.00
229, -187500.02, 87962.25, -187500.02, -187500.02, -187500.02, -187500.02, -145900.81, -187500.02, 0.06, 0.00, 0.00
230, -187500.02, 87953.93, -187500.02, -187500.02, -187500.02, -187500.02, -145898.66, -187500.02, 0.06, 0.00, 0.00
231, -187500.02, 87944.95, -187500.02, -187500.02, -187500.02, -187500.02, -145898.70, -187500.02, 0.06, 0.00, 0.00
232, -187500.02, 87941.23, -187500.02, -187500.02, -187500.02, -187500.02, -145899.70, -187500.02, 0.06, 0.00, 0.00
233, -187500.02, 87941.98, -187500.02, -187500.02, -187500.02, -187500.02, -145901.28, -187500.02, 0.06, 0.00, 0.00
234, -187500.02, 87938.51, -187500.02, -187500.02, -187500.02, -187500.02, -145902.61, -187500.02, 0.06, 0.00, 0.00
235, -187500.02, 87926.71, -187500.02, -187500.02, -187500.02, -187500.02, -145899.95, -187500.02, 0.06, 0.00, 0.00
236, -187500.02, 87919.69, -187500.02, -187500.02, -187500.02, -187500.02, -145898.73, -187500.02, 0.06, 0.00, 0.00
237, -187500.02, 87920.05, -187500.02, -187500.02, -187500.02, -187500.02, -145900.36, -187500.02, 0.06, 0.00, 0.00
238, -187500.02, 87917.90, -187500.02, -187500.02, -187500.02, -187500.02, -145901.67, -187500.02, 0.06, 0.00, 0.00
239, -187500.02, 87906.44, -187500.02, -187500.02, -187500.02, -187500.02, -145899.42, -187500.02, 0.06, 0.00, 0.00
240, -187500.02, 87898.48, -187500.02, -187500.02, -187500.02, -187500.02, -145897.83, -187500.02, 0.06, 0.00, 0.00
241, -187500.02, 87898.84, -187500.02, -187500.02, -187500.02, -187500.02, -145899.80, -187500.02, 0.06, 0.00, 0.00
242, -187500.02, 87897.00, -187500.02, -187500.02, -187500.02, -187500.02, -145900.52, -187500.02, 0.06, 0.00, 0.00
243, -187500.02, 87886.38, -187500.02, -187500.02, -187500.02, -187500.02, -145898.70, -187500.02, 0.06, 0.00, 0.00
244, -187500.02, 87875.79, -187500.02, -187500.02, -187500.02, -187500.02, -145895.53, -187500.02, 0.06, 0.00, 0.00
245, -187500.02, 87873.27, -187500.02, -187500.02, -187500.02, -187500.02, -145895.58, -187500.02, 0.06, 0.00, 0.00
246, -187500.02, 87875.81, -187500.02, -187500.02, -187500.02, -187500.02, -145899.69, -187500.02, 0.06, 0.00, 0.00
247, -187500.02, 87870.43, -187500.02, -187500.02, -187500.02, -187500.02, -145902.27, -187500.02, 0.06, 0.00, 0.00
248, -187500.02, 87858.70, -187500.02, -187500.02, -187500.02, -187500.02, -145898.50, -187500.02, 0.06, 0.00, 0.00
249, -187500.02, 87852.16, -187500.02, -187500.02, -187500.02, -187500.02, -145895.17, -187500.02, 0.06, 0.00, 0.00
250, -187500.02, 87853.93, -187500.02, -187500.02, -187500.02, -187500.02, -145897.92, -187500.02, 0.06, 0.00, 0.00
251, -187500.02, 87845.91, -187500.02, -187500.02, -187500.02, -187500.02, -145896.73, -187500.02, 0.06, 0.00, 0.00
252, -187500.02, 87836.23, -187500.02, -187500.02, -187500.02, -187500.02, -145895.84, -187500.02, 0.06, 0.00, 0.00
253, -187500.02, 87829.52, -187500.02, -187500.02, -187500.02, -187500.02, -145893.36, -187500.02, 0.06, 0.00, 0.00
254, -187500.02, 87832.83, -187500.02, -187500.02, -187500.02, -187500.02, -145897.50, -187500.02, 0.06, 0.00, 0.00
255, -187500.02, 87827.31, -187500.02, -187500.02, -187500.02, -187500.02, -145897.63, -187500.02, 0.06, 0.00, 0.00
0, -187500.02, 87816.27, -187500.02, -187500.02, -187500.02, -187500.02, -145895.59, -187500.02, 0.06, 0.00, 0.00
1, -187500.02, 87810.41, -187500.02, -187500.02, -187500.02, -187500.02, -145894.91, -187500.02, 0.06, 0.00, 0.00
2, -187500.02, 87813.36, -187500.02, -187500.02, -187500.02, -187500.02, -145898.91, -187500.02, 0.06, 0.00, 0.00
3, -187500.02, 87810.41, -187500.02, -187500.02, -187500.02, -187500.02, -145900.36, -187500.02, 0.06, 0.00, 0.00
4, -187500.02, 87797.23, -187500.02, -187500.02, -187500.02, -187500.02, -145896.30, -187500.02, 0.06, 0.00, 0.00
5, -187500.02, 87789.70, -187500.02, -187500.02, -187500.02, -187500.02, -145894.86, -187500.02, 0.06, 0.00, 0.00
6, -187500.02, 87789.78, -187500.02, -187500.02, -187500.02, -187500.02, -145896.31, -187500.02, 0.06, 0.00, 0.00
7, -187500.02, 87788.04, -187500.02, -187500.02, -187500.02, -187500.02, -145897.81, -187500.02, 0.06, 0.00, 0.00
8, -187500.02, 87775.12, -187500.02, -187500.02, -187500.02, -187500.02, -145893.75, -187500.02, 0.06, 0.00, 0.00
9, -187500.02, 87764.77, -187500.02, -187500.02, -187500.02, -187500.02, -145890.23, -187500.02, 0.06, 0.00, 0.00
10, -187500.02, 87762.45, -187500.02, -187500.02, -187500.02, -187500.02, -145889.97, -187500.02, 0.06, 0.00, 0.00
11, -187500.02, 87765.09, -187500.02, -187500.02, -187500.02, -187500.02, -145894.70, -187500.02, 0.06, 0.00, 0.00
12, -187500.02, 87757.93, -187500.02, -187500.02, -187500.02, -187500.02, -145895.94, -187500.02, 0.06, 0.00, 0.00
13, -187500.02, 87748.72, -187500.02, -187500.02, -187500.02, -187500.02, -145894.45, -187500.02, 0.06, 0.00, 0.00
14, -187500.02, 87743.42, -187500.02, -187500.02, -187500.02, -187500.02, -145892.05, -187500.02, 0.06, 0.00, 0.00
15, -187500.02, 87744.66, -187500.02, -187500.02, -187500.02, -187500.02, -145894.48, -187500.02, 0.06, 0.00, 0.00
16, -187500.02, 87736.77, -187500.02, -187500.02, -187500.02, -187500.02, -145893.98, -187500.02, 0.06, 0.00, 0.00
17, -187500.02, 87727.87, -187500.02, -187500.02, -187500.02, -187500.02, -145893.50, -187500.02, 0.06, 0.00, 0.00
18, -187500.02, 87724.16, -187500.02, -187500.02, -187500.02, -187500.02, -145893.47, -187500.02, 0.06, 0.00, 0.00
19, -187500.02, 87726.59, -187500.02, -187500.02, -187500.02, -187500.02, -145896.89, -187500.02, 0.06, 0.00, 0.00
20, -187500.02, 87720.67, -187500.02, -187500.02, -187500.02, -187500.02, -145897.45, -187500.02, 0.06, 0.00, 0.00
21, -187500.02, 87707.77, -187500.02, -187500.02, -187500.02, -187500.02, -145893.50, -187500.02, 0.06, 0.00, 0.00
22, -187500.02, 87700.28, -187500.02, -187500.02, -187500.02, -187500.02, -145890.61, -187500.02, 0.06, 0.00, 0.00
23, -187500.02, 87697.49, -187500.02, -187500.02, -187500.02, -187500.02, -145888.64, -187500.02, 0.06, 0.00, 0.00
24, -187500.02, 87694.54, -187500.02, -187500.02, -187500.02, -187500.02, -145890.66, -187500.02, 0.06, 0.00, 0.00
25, -187500.02, 87684.91, -187500.02, -187500.02, -187500.02, -187500.02, -145890.19, -187500.02, 0.06, 0.00, 0.00
26, -187500.02, 87681.55, -187500.02, -187500.02, -187500.02, -187500.02, -145892.30, -187500.02, 0.06, 0.00, 0.00
27, -187500.02, 87680.88, -187500.02, -187500.02, -187500.02, -187500.02, -145892.67, -187500.02, 0.06, 0.00, 0.00
28, -187500.02, 87677.87, -187500.02, -187500.02, -187500.02, -187500.02, -145893.66, -187500.02, 0.06, 0.00, 0.00
29, -187500.02, 87666.87, -187500.02, -187500.02, -187500.02, -187500.02, -145891.86, -187500.02, 0.06, 0.00, 0.00
30, -187500.02, 87658.35, -187500.02, -187500.02, -187500.02, -187500.02, -145889.63, -187500.02, 0.06, 0.00, 0.00
31, -187500.02, 87657.93, -187500.02, -187500.02, -187500.02, -187500.02, -145890.72, -187500.02, 0.06, 0.00, 0.00
32, -187500.02, 87655.67, -187500.02, -187500.02, -187500.02, -187500.02, -145891.19, -187500.02, 0.06, 0.00, 0.00
33, -187500.02, 87646.59, -187500.02, -187500.02, -187500.02, -187500.02, -145890.88, -187500.02, 0.06, 0.00, 0.00
34, -187500.02, 87637.32, -187500.02, -187500.02, -187500.02, -187500.02, -145888.72, -187500.02, 0.06, 0.00, 0.00
35, -187500.02, 87637.23, -187500.02, -187500.02, -187500.02, -187500.02, -145891.08, -187500.02, 0.06, 0.00, 0.00
36, -187500.02, 87638.35, -187500.02, -187500.02, -187500.02, -187500.02, -145893.97, -187500.02, 0.06, 0.00, 0.00
37, -187500.02, 87628.31, -187500.02, -187500.02, -187500.02, -187500.02, -145891.86, -187500.02, 0.06, 0.00, 0.00
38, -187500.02, 87617.96, -187500.02, -187500.02, -187500.02, -187500.02, -145889.55, -187500.02, 0.06, 0.00, 0.00
39, -187500.02, 87616.58, -187500.02, -187500.02, -187500.02, -187500.02, -145891.33, -187500.02, 0.06, 0.00, 0.00
40, -187500.02, 87617.36, -187500.02, -187500.02, -187500.02, -187500.02, -145893.16, -187500.02, 0.06, 0.00, 0.00
41, -187500.02, 87608.73, -187500.02, -187500.02, -187500.02, -187500.02, -145891.66, -187500.02, 0.06, 0.00, 0.00
42, -187500.02, 87597.31, -187500.02, -187500.02, -187500.02, -187500.02, -145888.80, -187500.02, 0.06, 0.00, 0.00
43, -187500.02, 87594.18, -187500.02, -187500.02, -187500.02, -187500.02, -145889.58, -187500.02, 0.06, 0.00, 0.00
44, -187500.02, 87594.47, -187500.02, -187500.02, -187500.02, -187500.02, -145890.77, -187500.02, 0.06, 0.00, 0.00
45, -187500.02, 87587.48, -187500.02, -187500.02, -187500.02, -187500.02, -145889.92, -187500.02, 0.06, 0.00, 0.00
46, -187500.02, 87577.10, -187500.02, -187500.02, -187500.02, -187500.02, -145888.63, -187500.02, 0.06, 0.00, 0.00
47, -187500.02, 87571.77, -187500.02, -187500.02, -187500.02, -187500.02, -145888.16, -187500.02, 0.06, 0.00, 0.00
48, -187500.02, 87569.95, -187500.02, -187500.02, -187500.02, -187500.02, -145886.98, -187500.02, 0.06, 0.00, 0.00
49, -187500.02, 87566.60, -187500.02, -187500.02, -187500.02, -187500.02, -145888.20, -187500.02, 0.06, 0.00, 0.00
50, -187500.02, 87556.66, -187500.02, -187500.02, -187500.02, -187500.02, -145887.58, -187500.02, 0.06, 0.00, 0.00
51, -187500.02, 87545.81, -187500.02, -187500.02, -187500.02, -187500.02, -145882.52, -187500.02, 0.06, 0.00, 0.00
52, -187500.02, 87545.55, -187500.02, -187500.02, -187500.02, -187500.02, -145883.69, -187500.02, 0.06, 0.00, 0.00
53, -187500.02, 87542.98, -187500.02, -187500.02, -187500.02, -187500.02, -145884.28, -187500.02, 0.06, 0.00, 0.00
54, -187500.02, 87536.11, -187500.02, -187500.02, -187500.02, -187500.02, -145886.55, -187500.02, 0.06, 0.00, 0.00
55, -187500.02, 87528.27, -187500.02, -187500.02, -187500.02, -187500.02, -145885.41, -187500.02, 0.06, 0.00, 0.00
56, -187500.02, 87526.03, -187500.02, -187500.02, -187500.02, -187500.02, -145884.95, -187500.02, 0.06, 0.00, 0.00
57, -187500.02, 87526.86, -187500.02, -187500.02, -187500.02, -187500.02, -145888.06, -187500.02, 0.06, 0.00, 0.00
58, -187500.02, 87519.66, -187500.02, -187500.02, -187500.02, -187500.02, -145889.36, -187500.02, 0.06, 0.00, 0.00
59, -187500.02, 87507.52, -187500.02, -187500.02, -187500.02, -187500.02, -145884.72, -187500.02, 0.06, 0.00, 0.00
60, -187500.02, 87506.98, -187500.02, -187500.02, -187500.02, -187500.02, -145886.91, -187500.02, 0.06, 0.00, 0.00
61, -187500.02, 87508.17, -187500.02, -187500.02, -187500.02, -187500.02, -145889.56, -187500.02, 0.06, 0.00, 0.00
62, -187500.02, 87497.66, -187500.02, -187500.02, -187500.02, -187500.02, -145886.67, -187500.02, 0.06, 0.00, 0.00
63, -187500.02, 87486.70, -187500.02, -187500.02, -187500.02, -187500.02, -145883.86, -187500.02, 0.06, 0.00, 0.00
64, -187500.02, 87483.67, -187500.02, -187500.02, -187500.02, -187500.02, -145883.97, -187500.02, 0.06, 0.00, 0.00
65, -187500.02, 87485.75, -187500.02, -187500.02, -187500.02, -187500.02, -145887.06, -187500.02, 0.06, 0.00, 0.00
66, -187500.02, 87479.61, -187500.02, -187500.02, -187500.02, -187500.02, -145887.70, -187500.02, 0.06, 0.00, 0.00
67, -187500.02, 87468.95, -187500.02, -187500.02, -187500.02, -187500.02, -145885.72, -187500.02, 0.06, 0.00, 0.00
68, -187500.02, 87464.36, -187500.02, -187500.02, -187500.02, -187500.02, -145885.50, -187500.02, 0.06, 0.00, 0.00
69, -187500.02, 87464.23, -187500.02, -187500.02, -187500.02, -187500.02, -145886.25, -187500.02, 0.06, 0.00, 0.00
70, -187500.02, 87459.89, -187500.02, -187500.02, -187500.02, -187500.02, -145887.39, -187500.02, 0.06, 0.00, 0.00
71, -187500.02, 87447.69, -187500.02, -187500.02, -187500.02, -187500.02, -145884.16, -187500.02, 0.06, 0.00, 0.00
72, -187500.02, 87441.50, -187500.02, -187500.02, -187500.02, -187500.02, -145882.83, -187500.02, 0.06, 0.00, 0.00
73, -187500.02, 87443.64, -187500.02, -187500.02, -187500.02, -187500.02, -145886.03, -187500.02, 0.06, 0.00, 0.00
74, -187500.02, 87439.73, -187500.02, -187500.02, -187500.02, -187500.02, -145886.25, -187500.02, 0.06, 0.00, 0.00
75, -187500.02, 87426.07, -187500.02, -187500.02, -187500.02, -187500.02, -145881.52, -187500.02, 0.06, 0.00, 0.00
76, -187500.02, 87419.70, -187500.02, -187500.02, -187500.02, -187500.02, -145881.27, -187500.02, 0.06, 0.00, 0.00
77, -187500.02, 87420.66, -187500.02, -187500.02, -187500.02, -187500.02, -145883.69, -187500.02, 0.06, 0.00, 0.00
78, -187500.02, 87421.16, -187500.02, -187500.02, -187500.02, -187500.02, -145887.13, -187500.02, 0.06, 0.00, 0.00
79, -187500.02, 87409.20, -187500.02, -187500.02, -187500.02, -187500.02, -145883.95, -187500.02, 0.06, 0.00, 0.00
80, -187500.02, 87398.70, -187500.02, -187500.02, -187500.02, -187500.02, -145880.16, -187500.02, 0.06, 0.00, 0.00
81, -187500.02, 87396.34, -187500.02, -187500.02, -187500.02, -187500.02, -145879.75, -187500.02, 0.06, 0.00, 0.00
82, -187500.02, 87396.57, -187500.02, -187500.02, -187500.02, -187500.02, -145882.13, -187500.02, 0.06, 0.00, 0.00
83, -187500.02, 87384.97, -187500.02, -187500.02, -187500.02, -187500.02, -145878.59, -187500.02, 0.06, 0.00, 0.00
84, -187500.02, 87372.99, -187500.02, -187500.02, -187500.02, -187500.02, -145874.28, -187500.02, 0.06, 0.00, 0.00
85, -187500.02, 87371.78, -187500.02, -187500.02, -187500.02, -187500.02, -145876.00, -187500.02, 0.06, 0.00, 0.00
86, -187500.02, 87372.88, -187500.02, -187500.02, -187500.02, -187500.02, -145878.34, -187500.02, 0.06, 0.00, 0.00
87, -187500.02, 87365.10, -187500.02, -187500.02, -187500.02, -187500.02, -145877.81, -187500.02, 0.06, 0.00, 0.00
88, -187500.02, 87355.95, -187500.02, -187500.02, -187500.02, -187500.02, -145876.83, -187500.02, 0.06, 0.00, 0.00
89, -187500.02, 87351.66, -187500.02, -187500.02, -187500.02, -187500.02, -145876.06, -187500.02, 0.06, 0.00, 0.00
90, -187500.02, 87351.80, -187500.02, -187500.02, -187500.02, -187500.02, -145876.95, -187500.02, 0.06, 0.00, 0.00
91, -187500.02, 87344.34, -187500.02, -187500.02, -187500.02, -187500.02, -145875.84, -187500.02, 0.06, 0.00, 0.00
92, -187500.02, 87335.05, -187500.02, -187500.02, -187500.02, -187500.02, -145875.48, -187500.02, 0.07, 0.00, 0.00
93, -187500.02, 87330.90, -187500.02, -187500.02, -187500.02, -187500.02, -145875.89, -187500.02, 0.07, 0.00, 0.00
94, -187500.02, 87330.41, -187500.02, -187500.02, -187500.02, -187500.02, -145876.31, -187500.02, 0.07, 0.00, 0.00
95, -187500.02, 87326.67, -187500.02, -187500.02, -187500.02, -187500.02, -145877.41, -187500.02, 0.07, 0.00, 0.00
96, -187500.02, 87318.23, -187500.02, -187500.02, -187500.02, -187500.02, -145877.78, -187500.02, 0.07, 0.00, 0.00
97, -187500.02, 87310.25, -187500.02, -187500.02, -187500.02, -187500.02, -145875.22, -187500.02, 0.07, 0.00, 0.00
98, -187500.02, 87311.01, -187500.02, -187500.02, -187500.02, -187500.02, -145877.30, -187500.02, 0.07, 0.00, 0.00
99, -187500.02, 87309.30, -187500.02, -187500.02, -187500.02, -187500.02, -145879.42, -187500.02, 0.07, 0.00, 0.00
100, -187500.02, 87295.25, -187500.02, -187500.02, -187500.02, -187500.02, -145874.16, -187500.02, 0.06, 0.00, 0.00
101, -187500.02, 87289.30, -187500.02, -187500.02, -187500.02, -187500.02, -145874.45, -187500.02, 0.07, 0.00, 0.00
102, -187500.02, 87289.48, -187500.02, -187500.02, -187500.02, -187500.02, -145876.39, -187500.02, 0.07, 0.00, 0.00
103, -187500.02, 87288.05, -187500.02, -187500.02, -187500.02, -187500.02, -145877.42, -187500.02, 0.07, 0.00, 0.00
104, -187500.02, 87277.73, -187500.02, -187500.02, -187500.02, -187500.02, -145875.39, -187500.02, 0.07, 0.00, 0.00
105, -187500.02, 87271.18, -187500.02, -187500.02, -187500.02, -187500.02, -145876.11, -187500.02, 0.07, 0.00, 0.00
106, -187500.02, 87269.86, -187500.02, -187500.02, -187500.02, -187500.02, -145877.22, -187500.02, 0.07, 0.00, 0.00
107, -187500.02, 87268.27, -187500.02, -187500.02, -187500.02, -187500.02, -145877.30, -187500.02, 0.07, 0.00, 0.00
108, -187500.02, 87259.93, -187500.02, -187500.02, -187500.02, -187500.02, -145876.98, -187500.02, 0.07, 0.00, 0.00
109, -187500.02, 87247.66, -187500.02, -187500.02, -187500.02, -187500.02, -145872.59, -187500.02, 0.07, 0.00, 0.00
110, -187500.02, 87241.72, -187500.02, -187500.02, -187500.02, -187500.02, -145869.64, -187500.02, 0.07, 0.00, 0.00
111, -187500.02, 87241.70, -187500.02, -187500.02, -187500.02, -187500.02, -145870.75, -187500.02, 0.07, 0.00, 0.00
112, -187500.02, 87233.23, -187500.02, -187500.02, -187500.02, -187500.02, -145868.94, -187500.02, 0.07, 0.00, 0.00
113, -187500.02, 87223.05, -187500.02, -187500.02, -187500.02, -187500.02, -145867.33, -187500.02, 0.07, 0.00, 0.00
114, -187500.02, 87219.41, -187500.02, -187500.02, -187500.02, -187500.02, -145867.72, -187500.02, 0.07, 0.00, 0.00
115, -187500.02, 87222.63, -187500.02, -187500.02, -187500.02, -187500.02, -145871.92, -187500.02, 0.07, 0.00, 0.00
116, -187500.02, 87217.15, -187500.02, -187500.02, -187500.02, -187500.02, -145872.28, -187500.02, 0.07, 0.00, 0.00
117, -187500.02, 87202.67, -187500.02, -187500.02, -187500.02, -187500.02, -145866.61, -187500.02, 0.07, 0.00, 0.00
118, -187500.02, 87194.20, -187500.02, -187500.02, -187500.02, -187500.02, -145863.02, -187500.02, 0.07, 0.00, 0.00
119, -187500.02, 87197.46, -187500.02, -187500.02, -187500.02, -187500.02, -145867.38, -187500.02, 0.07, 0.00, 0.00
120, -187500.02, 87196.95, -187500.02, -187500.02, -187500.02, -187500.02, -145871.22, -187500.02, 0.07, 0.00, 0.00
121, -187500.02, 87186.46, -187500.02, -187500.02, -187500.02, -187500.02, -145869.73, -187500.02, 0.07, 0.00, 0.00
122, -187500.02, 87177.08, -187500.02, -187500.02, -187500.02, -187500.02, -145866.31, -187500.02, 0.07, 0.00, 0.00
123, -187500.02, 87176.49, -187500.02, -187500.02, -187500.02, -187500.02, -145867.08, -187500.02, 0.07, 0.00, 0.00
124, -187500.02, 87175.02, -187500.02, -187500.02, -187500.02, -187500.02, -145868.80, -187500.02, 0.07, 0.00, 0.00
125, -187500.02, 87163.53, -187500.02, -187500.02, -187500.02, -187500.02, -145866.31, -187500.02, 0.07, 0.00, 0.00
126, -187500.02, 87158.08, -187500.02, -187500.02, -187500.02, -187500.02, -145867.69, -187500.02, 0.07, 0.00, 0.00
127, -187500.02, 87158.26, -187500.02, -187500.02, -187500.02, -187500.02, -145869.80, -187500.02, 0.07, 0.00, 0.00
128, -187500.02, 87157.31, -187500.02, -187500.02, -187500.02, -187500.02, -145870.83, -187500.02, 0.07, 0.00, 0.00
129, -187500.02, 87145.80, -187500.02, -187500.02, -187500.02, -187500.02, -145867.61, -187500.02, 0.07, 0.00, 0.00
130, -187500.02, 87135.23, -187500.02, -187500.02, -187500.02, -187500.02, -145864.70, -187500.02, 0.06, 0.00, 0.00
131, -187500.02, 87132.80, -187500.02, -187500.02, -187500.02, -187500.02, -145865.05, -187500.02, 0.06, 0.00, 0.00
132, -187500.02, 87134.38, -187500.02, -187500.02, -187500.02, -187500.02, -145867.97, -187500.02, 0.06, 0.00, 0.00
133, -187500.02, 87123.88, -187500.02, -187500.02, -187500.02, -187500.02, -145865.11, -187500.02, 0.06, 0.00, 0.00
134, -187500.02, 87114.45, -187500.02, -187500.02, -187500.02, -187500.02, -145864.16, -187500.02, 0.06, 0.00, 0.00
135, -187500.02, 87110.63, -187500.02, -187500.02, -187500.02, -187500.02, -145863.80, -187500.02, 0.06, 0.00, 0.00
136, -187500.02, 87111.52, -187500.02, -187500.02, -187500.02, -187500.02, -145865.42, -187500.02, 0.06, 0.00, 0.00
137, -187500.02, 87104.86, -187500.02, -187500.02, -187500.02, -187500.02, -145865.22, -187500.02, 0.06, 0.00, 0.00
138, -187500.02, 87093.91, -187500.02, -187500.02, -187500.02, -187500.02, -145863.05, -187500.02, 0.06, 0.00, 0.00
139, -187500.02, 87087.63, -187500.02, -187500.02, -187500.02, -187500.02, -145861.17, -187500.02, 0.06, 0.00, 0.00
140, -187500.02, 87088.12, -187500.02, -187500.02, -187500.02, -187500.02, -145862.70, -187500.02, 0.06, 0.00, 0.00
141, -187500.02, 87084.80, -187500.02, -187500.02, -187500.02, -187500.02, -145864.53, -187500.02, 0.06, 0.00, 0.00
142, -187500.02, 87075.38, -187500.02, -187500.02, -187500.02, -187500.02, -145864.17, -187500.02, 0.07, 0.00, 0.00
143, -187500.02, 87070.57, -187500.02, -187500.02, -187500.02, -187500.02, -145864.73, -187500.02, 0.07, 0.00, 0.00
144, -187500.02, 87072.13, -187500.02, -187500.02, -187500.02, -187500.02, -145867.39, -187500.02, 0.07, 0.00, 0.00
145, -187500.02, 87066.34, -187500.02, -187500.02, -187500.02, -187500.02, -145865.52, -187500.02, 0.07, 0.00, 0.00
146, -187500.02, 87053.76, -187500.02, -187500.02, -187500.02, -187500.02, -145861.98, -187500.02, 0.07, 0.00, 0.00
147, -187500.02, 87043.19, -187500.02, -187500.02, -187500.02, -187500.02, -145857.83, -187500.02, 0.07, 0.00, 0.00
148, -187500.02, 87041.69, -187500.02, -187500.02, -187500.02, -187500.02, -145858.00, -187500.02, 0.07, 0.00, 0.00
149, -187500.02, 87043.34, -187500.02, -187500.02, -187500.02, -187500.02, -145862.45, -187500.02, 0.07, 0.00, 0.00
150, -187500.02, 87034.72, -187500.02, -187500.02, -187500.02, -187500.02, -145862.55, -187500.02, 0.07, 0.00, 0.00
151, -187500.02, 87026.60, -187500.02, -187500.02, -187500.02, -187500.02, -145861.48, -187500.02, 0.07, 0.00, 0.00
152, -187500.02, 87023.79, -187500.02, -187500.02, -187500.02, -187500.02, -145860.80, -187500.02, 0.06, 0.00, 0.00
153, -187500.02, 87021.93, -187500.02, -187500.02, -187500.02, -187500.02, -145860.66, -187500.02, 0.06, 0.00, 0.00
154, -187500.02, 87014.58, -187500.02, -187500.02, -187500.02, -187500.02, -145861.42, -187500.02, 0.06, 0.00, 0.00
155, -187500.02, 87003.60, -187500.02, -187500.02, -187500.02, -187500.02, -145858.45, -187500.02, 0.06, 0.00, 0.00
156, -187500.02, 86999.11, -187500.02, -187500.02, -187500.02, -187500.02, -145857.16, -187500.02, 0.06, 0.00, 0.00
157, -187500.02, 87000.98, -187500.02, -187500.02, -187500.02, -187500.02, -145860.19, -187500.02, 0.07, 0.00, 0.00
158, -187500.02, 86993.99, -187500.02, -187500.02, -187500.02, -187500.02, -145860.38, -187500.02, 0.07, 0.00, 0.00
159, -187500.02, 86983.69, -187500.02, -187500.02, -187500.02, -187500.02, -145858.56, -187500.02, 0.07, 0.00, 0.00
160, -187500.02, 86981.09, -187500.02, -187500.02, -187500.02, -187500.02, -145859.81, -187500.02, 0.06, 0.00, 0.00
161, -187500.02, 86982.73, -187500.02, -187500.02, -187500.02, -187500.02, -145862.36, -187500.02, 0.06, 0.00, 0.00
162, -187500.02, 86976.36, -187500.02, -187500.02, -187500.02, -187500.02, -145862.03, -187500.02, 0.06, 0.00, 0.00
163, -187500.02, 86962.77, -187500.02, -187500.02, -187500.02, -187500.02, -145857.28, -187500.02, 0.07, 0.00, 0.00
164, -187500.02, 86958.19, -187500.02, -187500.02, -187500.02, -187500.02, -145857.63, -187500.02, 0.07, 0.00, 0.00
165, -187500.02, 86958.20, -187500.02, -187500.02, -187500.02, -187500.02, -145858.58, -187500.02, 0.07, 0.00, 0.00
166, -187500.02, 86952.40, -187500.02, -187500.02, -187500.02, -187500.02, -145857.52, -187500.02, 0.06, 0.00, 0.00
167, -187500.02, 86939.92, -187500.02, -187500.02, -187500.02, -187500.02, -145854.19, -187500.02, 0.06, 0.00, 0.00
168, -187500.02, 86932.77, -187500.02, -187500.02, -187500.02, -187500.02, -145852.75, -187500.02, 0.06, 0.00, 0.00
169, -187500.02, 86933.33, -187500.02, -187500.02, -187500.02, -187500.02, -145854.47, -187500.02, 0.07, 0.00, 0.00
170, -187500.02, 86931.95, -187500.02, -187500.02, -187500.02, -187500.02, -145856.48, -187500.02, 0.07, 0.00, 0.00
171, -187500.02, 86921.66, -187500.02, -187500.02, -187500.02, -187500.02, -145855.30, -187500.02, 0.07, 0.00, 0.00
172, -187500.02, 86912.92, -187500.02, -187500.02, -187500.02, -187500.02, -145853.31, -187500.02, 0.07, 0.00, 0.00
173, -187500.02, 86911.36, -187500.02, -187500.02, -187500.02, -187500.02, -145853.55, -187500.02, 0.06, 0.00, 0.00
174, -187500.02, 86913.75, -187500.02, -187500.02, -187500.02, -187500.02, -145858.34, -187500.02, 0.06, 0.00, 0.00
175, -187500.02, 86901.52, -187500.02, -187500.02, -187500.02, -187500.02, -145854.66, -187500.02, 0.06, 0.00, 0.00
176, -187500.02, 86889.95, -187500.02, -187500.02, -187500.02, -187500.02, -145850.41, -187500.02, 0.06, 0.00, 0.00
177, -187500.02, 86886.84, -187500.02, -187500.02, -187500.02, -187500.02, -145849.69, -187500.02, 0.07, 0.00, 0.00
178, -187500.02, 86891.29, -187500.02, -187500.02, -187500.02, -187500.02, -145855.63, -187500.02, 0.06, 0.00, 0.00
179, -187500.02, 86885.38, -187500.02, -187500.02, -187500.02, -187500.02, -145857.59, -187500.02, 0.06, 0.00, 0.00
180, -187500.02, 86872.42, -187500.02, -187500.02, -187500.02, -187500.02, -145852.89, -187500.02, 0.06, 0.00, 0.00
181, -187500.02, 86868.55, -187500.02, -187500.02, -187500.02, -187500.02, -145852.34, -187500.02, 0.06, 0.00, 0.00
182, -187500.02, 86870.66, -187500.02, -187500.02, -187500.02, -187500.02, -145855.41, -187500.02, 0.06, 0.00, 0.00
183, -187500.02, 86863.88, -187500.02, -187500.02, -187500.02, -187500.02, -145855.34, -187500.02, 0.06, 0.00, 0.00
184, -187500.02, 86855.48, -187500.02, -187500.02, -187500.02, -187500.02, -145855.61, -187500.02, 0.06, 0.00, 0.00
185, -187500.02, 86850.07, -187500.02, -187500.02, -187500.02, -187500.02, -145854.53, -187500.02, 0.06, 0.00, 0.00
186, -187500.02, 86849.13, -187500.02, -187500.02, -187500.02, -187500.02, -145854.38, -187500.02, 0.06, 0.00, 0.00
187, -187500.02, 86844.41, -187500.02, -187500.02, -187500.02, -187500.02, -145855.19, -187500.02, 0.06, 0.00, 0.00
188, -187500.02, 86832.97, -187500.02, -187500.02, -187500.02, -187500.02, -145852.92, -187500.02, 0.06, 0.00, 0.00
189, -187500.02, 86827.00, -187500.02, -187500.02, -187500.02, -187500.02, -145852.22, -187500.02, 0.06, 0.00, 0.00
190, -187500.02, 86830.66, -187500.02, -187500.02, -187500.02, -187500.02, -145856.77, -187500.02, 0.06, 0.00, 0.00
191, -187500.02, 86827.92, -187500.02, -187500.02, -187500.02, -187500.02, -145857.95, -187500.02, 0.06, 0.00, 0.00
192, -187500.02, 86814.24, -187500.02, -187500.02, -187500.02, -187500.02, -145853.47, -187500.02, 0.06, 0.00, 0.00
193, -187500.02, 86807.09, -187500.02, -187500.02, -187500.02, -187500.02, -145852.64, -187500.02, 0.06, 0.00, 0.00
194, -187500.02, 86806.98, -187500.02, -187500.02, -187500.02, -187500.02, -145853.89, -187500.02, 0.06, 0.00, 0.00
195, -187500.02, 86805.66, -187500.02, -187500.02, -187500.02, -187500.02, -145855.45, -187500.02, 0.06, 0.00, 0.00
196, -187500.02, 86793.88, -187500.02, -187500.02, -187500.02, -187500.02, -145852.70, -187500.02, 0.06, 0.00, 0.00
197, -187500.02, 86782.39, -187500.02, -187500.02, -187500.02, -187500.02, -145848.17, -187500.02, 0.06, 0.00, 0.00
198, -187500.02, 86780.65, -187500.02, -187500.02, -187500.02, -187500.02, -145848.50, -187500.02, 0.06, 0.00, 0.00
199, -187500.02, 86782.34, -187500.02, -187500.02, -187500.02, -187500.02, -145852.09, -187500.02, 0.06, 0.00, 0.00
200, -187500.02, 86771.23, -187500.02, -187500.02, -187500.02, -187500.02, -145849.23, -187500.02, 0.06, 0.00, 0.00
201, -187500.02, 86762.09, -187500.02, -187500.02, -187500.02, -187500.02, -145847.86, -187500.02, 0.06, 0.00, 0.00
202, -187500.02, 86759.48, -187500.02, -187500.02, -187500.02, -187500.02, -145848.09, -187500.02, 0.06, 0.00, 0.00
203, -187500.02, 86758.36, -187500.02, -187500.02, -187500.02, -187500.02, -145848.22, -187500.02, 0.06, 0.00, 0.00
204, -187500.02, 86749.24, -187500.02, -187500.02, -187500.02, -187500.02, -145846.56, -187500.02, 0.06, 0.00, 0.00
205, -187500.02, 86738.34, -187500.02, -187500.02, -187500.02, -187500.02, -145844.05, -187500.02, 0.06, 0.00, 0.00
206, -187500.02, 86734.35, -187500.02, -187500.02, -187500.02, -187500.02, -145843.81, -187500.02, 0.06, 0.00, 0.00
207, -187500.02, 86735.83, -187500.02, -187500.02, -187500.02, -187500.02, -145846.06, -187500.02, 0.06, 0.00, 0.00
208, -187500.02, 86729.82, -187500.02, -187500.02, -187500.02, -187500.02, -145846.22, -187500.02, 0.06, 0.00, 0.00
209, -187500.02, 86719.36, -187500.02, -187500.02, -187500.02, -187500.02, -145844.84, -187500.02, 0.06, 0.00, 0.00
210, -187500.02, 86715.13, -187500.02, -187500.02, -187500.02, -187500.02, -145845.17, -187500.02, 0.06, 0.00, 0.00
211, -187500.02, 86717.55, -187500.02, -187500.02, -187500.02, -187500.02, -145848.38, -187500.02, 0.06, 0.00, 0.00
212, -187500.02, 86714.33, -187500.02, -187500.02, -187500.02, -187500.02, -145850.30, -187500.02, 0.06, 0.00, 0.00
213, -187500.02, 86703.73, -187500.02, -187500.02, -187500.02, -187500.02, -145848.95, -187500.02, 0.06, 0.00, 0.00
214, -187500.02, 86696.36, -187500.02, -187500.02, -187500.02, -187500.02, -145847.05, -187500.02, 0.06, 0.00, 0.00
215, -187500.02, 86695.69, -187500.02, -187500.02, -187500.02, -187500.02, -145847.39, -187500.02, 0.06, 0.00, 0.00
216, -187500.02, 86691.87, -187500.02, -187500.02, -187500.02, -187500.02, -145847.30, -187500.02, 0.06, 0.00, 0.00
217, -187500.02, 86680.45, -187500.02, -187500.02, -187500.02, -187500.02, -145844.91, -187500.02, 0.06, 0.00, 0.00
218, -187500.02, 86672.69, -187500.02, -187500.02, -187500.02, -187500.02, -145843.61, -187500.02, 0.06, 0.00, 0.00
219, -187500.02, 86672.73, -187500.02, -187500.02, -187500.02, -187500.02, -145845.39, -187500.02, 0.06, 0.00, 0.00
220, -187500.02, 86671.99, -187500.02, -187500.02, -187500.02, -187500.02, -145847.27, -187500.02, 0.06, 0.00, 0.00
221, -187500.02, 86661.60, -187500.02, -187500.02, -187500.02, -187500.02, -145845.58, -187500.02, 0.06, 0.00, 0.00
222, -187500.02, 86650.09, -187500.02, -187500.02, -187500.02, -187500.02, -145841.38, -187500.02, 0.06, 0.00, 0.00
223, -187500.02, 86646.00, -187500.02, -187500.02, -187500.02, -187500.02, -145839.63, -187500.02, 0.06, 0.00, 0.00
224, -187500.02, 86649.09, -187500.02, -187500.02, -187500.02, -187500.02, -145844.17, -187500.02, 0.06, 0.00, 0.00
225, -187500.02, 86642.69, -187500.02, -187500.02, -187500.02, -187500.02, -145845.81, -187500.02, 0.06, 0.00, 0.00
226, -187500.02, 86633.33, -187500.02, -187500.02, -187500.02, -187500.02, -145844.34, -187500.02, 0.06, 0.00, 0.00
227, -187500.02, 86629.77, -187500.02, -187500.02, -187500.02, -187500.02, -145844.09, -187500.02, 0.06, 0.00, 0.00
228, -187500.02, 86632.43, -187500.02, -187500.02, -187500.02, -187500.02, -145847.83, -187500.02, 0.06, 0.00, 0.00
229, -187500.02, 86622.95, -187500.02, -187500.02, -187500.02, -187500.02, -145845.39, -187500.02, 0.06, 0.00, 0.00
230, -187500.02, 86609.05, -187500.02, -187500.02, -187500.02, -187500.02, -145840.13, -187500.02, 0.06, 0.00, 0.00
231, -187500.02, 86604.71, -187500.02, -187500.02, -187500.02, -187500.02, -145839.81, -187500.02, 0.06, 0.00, 0.00
232, -187500.02, 86606.97, -187500.02, -187500.02, -187500.02, -187500.02, -145842.64, -187500.02, 0.06, 0.00, 0.00
233, -187500.02, 86600.87, -187500.02, -187500.02, -187500.02, -187500.02, -145842.27, -187500.02, 0.06, 0.00, 0.00
234, -187500.02, 86589.42, -187500.02, -187500.02, -187500.02, -187500.02, -145839.97, -187500.02, 0.06, 0.00, 0.00
235, -187500.02, 86583.68, -187500.02, -187500.02, -187500.02, -187500.02, -145839.34, -187500.02, 0.06, 0.00, 0.00
236, -187500.02, 86583.93, -187500.02, -187500.02, -187500.02, -187500.02, -145840.48, -187500.02, 0.06, 0.00, 0.00
237, -187500.02, 86580.84, -187500.02, -187500.02, -187500.02, -187500.02, -145841.86, -187500.02, 0.06, 0.00, 0.00
238, -187500.02, 86569.40, -187500.02, -187500.02, -187500.02, -187500.02, -145839.77, -187500.02, 0.06, 0.00, 0.00
239, -187500.02, 86563.52, -187500.02, -187500.02, -187500.02, -187500.02, -145839.77, -187500.02, 0.05, 0.00, 0.00
240, -187500.02, 86565.55, -187500.02, -187500.02, -187500.02, -187500.02, -145843.00, -187500.02, 0.05, 0.00, 0.00
241, -187500.02, 86563.41, -187500.02, -187500.02, -187500.02, -187500.02, -145844.09, -187500.02, 0.05, 0.00, 0.00
242, -187500.02, 86550.29, -187500.02, -187500.02, -187500.02, -187500.02, -145839.92, -187500.02, 0.06, 0.00, 0.00
243, -187500.02, 86540.54, -187500.02, -187500.02, -187500.02, -187500.02, -145836.98, -187500.02, 0.06, 0.00, 0.00
244, -187500.02, 86537.97, -187500.02, -187500.02, -187500.02, -187500.02, -145836.34, -187500.02, 0.06, 0.00, 0.00
245, -187500.02, 86539.20, -187500.02, -187500.02, -187500.02, -187500.02, -145839.78, -187500.02, 0.06, 0.00, 0.00
246, -187500.02, 86529.91, -187500.02, -187500.02, -187500.02, -187500.02, -145838.91, -187500.02, 0.06, 0.00, 0.00
247, -187500.02, 86522.64, -187500.02, -187500.02, -187500.02, -187500.02, -145839.22, -187500.02, 0.06, 0.00, 0.00
248, -187500.02, 86521.27, -187500.02, -187500.02, -187500.02, -187500.02, -145840.41, -187500.02, 0.06, 0.00, 0.00
249, -187500.02, 86521.32, -187500.02, -187500.02, -187500.02, -187500.02, -145841.75, -187500.02, 0.06, 0.00, 0.00
250, -187500.02, 86515.46, -187500.02, -187500.02, -187500.02, -187500.02, -145843.61, -187500.02, 0.06, 0.00, 0.00
251, -187500.02, 86504.13, -187500.02, -187500.02, -187500.02, -187500.02, -145840.56, -187500.02, 0.07, 0.00, 0.00
252, -187500.02, 86497.31, -187500.02, -187500.02, -187500.02, -187500.02, -145837.33, -187500.02, 0.07, 0.00, 0.00
253, -187500.02, 86498.59, -187500.02, -187500.02, -187500.02, -187500.02, -145839.45, -187500.02, 0.06, 0.00, 0.00
254, -187500.02, 86489.36, -187500.02, -187500.02, -187500.02, -187500.02, -145836.77, -187500.02, 0.06, 0.00, 0.00
255, -187500.02, 86477.82, -187500.02, -187500.02, -187500.02, -187500.02, -145834.20, -187500.02, 0.06, 0.00, 0.00
0, -187500.02, 86474.18, -187500.02, -187500.02, -187500.02, -187500.02, -145834.88, -187500.02, 0.06, 0.00, 0.00
1, -187500.02, 86474.94, -187500.02, -187500.02, -187500.02, -187500.02, -145836.25, -187500.02, 0.06, 0.00, 0.00
2, -187500.02, 86468.97, -187500.02, -187500.02, -187500.02, -187500.02, -145835.61, -187500.02, 0.06, 0.00, 0.00
3, -187500.02, 86455.23, -187500.02, -187500.02, -187500.02, -187500.02, -145831.06, -187500.02, 0.06, 0.00, 0.00
4, -187500.02, 86449.26, -187500.02, -187500.02, -187500.02, -187500.02, -145830.52, -187500.02, 0.05, 0.00, 0.00
5, -187500.02, 86450.02, -187500.02, -187500.02, -187500.02, -187500.02, -145832.25, -187500.02, 0.06, 0.00, 0.00
6, -187500.02, 86447.89, -187500.02, -187500.02, -187500.02, -187500.02, -145834.16, -187500.02, 0.06, 0.00, 0.00
7, -187500.02, 86437.91, -187500.02, -187500.02, -187500.02, -187500.02, -145833.38, -187500.02, 0.06, 0.00, 0.00
8, -187500.02, 86430.30, -187500.02, -187500.02, -187500.02, -187500.02, -145831.81, -187500.02, 0.06, 0.00, 0.00
9, -187500.02, 86430.26, -187500.02, -187500.02, -187500.02, -187500.02, -145833.23, -187500.02, 0.06, 0.00, 0.00
10, -187500.02, 86429.81, -187500.02, -187500.02, -187500.02, -187500.02, -145835.42, -187500.02, 0.06, 0.00, 0.00
11, -187500.02, 86419.46, -187500.02, -187500.02, -187500.02, -187500.02, -145833.91, -187500.02, 0.06, 0.00, 0.00
