%OpenBCI Raw EEG Data
%
%Sample Rate = 250.0 Hz
%First Column = SampleIndex
%Other Columns = EEG data in microvolts followed by Accel Data (in G) interleaved with Aux Data
0, -5533.69, 4763.47, -5688.00, -5628.57, -99514.63, -99432.02, -119144.38, -105206.59, 0.06, 0.00, 0.00
1, -5525.10, 4752.61, -5679.94, -5620.75, -99506.70, -99424.22, -119136.05, -105198.66, 0.06, 0.00, 0.00
2, -5545.80, 4784.75, -5698.58, -5638.70, -99525.32, -99442.88, -119156.19, -105218.80, 0.06, 0.00, 0.00
3, -5558.48, 4801.33, -5710.51, -5650.16, -99537.19, -99454.62, -119168.59, -105230.87, 0.06, 0.00, 0.00
4, -5537.91, 4769.88, -5691.74, -5632.19, -99518.66, -99436.02, -119148.59, -105210.82, 0.06, 0.00, 0.00
5, -5524.17, 4750.98, -5679.00, -5620.06, -99506.14, -99423.51, -119135.29, -105197.90, 0.06, 0.00, 0.00
6, -5545.02, 4781.73, -5698.04, -5638.34, -99525.19, -99442.51, -119155.72, -105218.24, 0.06, 0.00, 0.00
7, -5559.15, 4802.56, -5711.03, -5650.54, -99538.04, -99455.23, -119169.46, -105231.63, 0.06, 0.00, 0.00
8, -5539.75, 4774.02, -5693.03, -5633.40, -99520.27, -99437.56, -119150.41, -105212.54, 0.06, 0.00, 0.00
9, -5522.49, 4749.10, -5677.25, -5618.33, -99504.73, -99422.05, -119133.79, -105196.29, 0.06, 0.00, 0.00
10, -5538.07, 4772.86, -5691.51, -5631.95, -99518.99, -99436.36, -119149.10, -105211.69, 0.06, 0.00, 0.00
11, -5556.78, 4800.55, -5708.57, -5648.20, -99535.82, -99453.15, -119167.23, -105229.48, 0.06, 0.00, 0.00
12, -5543.95, 4780.70, -5696.92, -5636.91, -99524.29, -99441.50, -119154.71, -105216.85, 0.06, 0.00, 0.00
13, -5522.67, 4749.61, -5677.52, -5618.40, -99505.16, -99422.37, -119134.23, -105196.72, 0.06, 0.00, 0.00
14, -5533.96, 4766.55, -5687.89, -5628.37, -99515.48, -99432.76, -119145.26, -105207.89, 0.06, 0.00, 0.00
15, -5556.55, 4799.95, -5708.55, -5648.11, -99535.98, -99453.19, -119167.18, -105229.53, 0.06, 0.00, 0.00
16, -5550.79, 4789.98, -5703.47, -5643.21, -99530.99, -99448.09, -119161.57, -105223.72, 0.06, 0.00, 0.00
17, -5527.05, 4754.95, -5681.72, -5622.49, -99509.43, -99426.61, -119138.46, -105200.91, 0.06, 0.00, 0.00
18, -5528.44, 4759.27, -5682.69, -5623.39, -99510.43, -99427.75, -119139.94, -105202.66, 0.06, 0.00, 0.00
19, -5554.52, 4797.04, -5706.60, -5646.27, -99534.23, -99451.55, -119165.37, -105227.78, 0.06, 0.00, 0.00
20, -5556.11, 4797.22, -5708.32, -5647.88, -99536.00, -99453.23, -119166.94, -105229.04, 0.06, 0.00, 0.00
21, -5530.98, 4760.16, -5685.28, -5625.82, -99513.18, -99430.48, -119142.44, -105204.72, 0.06, 0.00, 0.00
22, -5526.71, 4755.80, -5681.05, -5621.73, -99509.12, -99426.45, -119138.21, -105200.88, 0.06, 0.00, 0.00
23, -5548.69, 4789.58, -5700.95, -5640.64, -99528.85, -99446.10, -119159.49, -105222.11, 0.06, 0.00, 0.00
24, -5554.30, 4797.02, -5706.15, -5645.72, -99533.99, -99451.18, -119164.97, -105227.18, 0.06, 0.00, 0.00
25, -5531.10, 4762.42, -5685.12, -5625.53, -99513.18, -99430.32, -119142.59, -105204.83, 0.06, 0.00, 0.00
26, -5525.33, 4753.50, -5680.02, -5620.70, -99508.11, -99425.38, -119137.19, -105199.80, 0.06, 0.00, 0.00
27, -5549.36, 4788.55, -5702.04, -5641.96, -99530.10, -99447.29, -119160.59, -105223.23, 0.06, 0.00, 0.00
28, -5560.96, 4804.75, -5712.79, -5652.15, -99540.79, -99457.84, -119171.85, -105234.11, 0.06, 0.00, 0.00
29, -5540.59, 4774.04, -5694.35, -5634.47, -99522.46, -99439.60, -119152.14, -105214.42, 0.06, 0.00, 0.00
30, -5527.25, 4754.62, -5682.04, -5622.80, -99510.32, -99427.57, -119139.20, -105201.81, 0.06, 0.00, 0.00
31, -5547.17, 4784.06, -5700.23, -5640.33, -99528.49, -99445.68, -119158.62, -105221.21, 0.06, 0.00, 0.00
32, -5564.18, 4808.53, -5715.94, -5655.30, -99544.05, -99461.15, -119175.07, -105237.42, 0.06, 0.00, 0.00
33, -5549.07, 4784.86, -5702.33, -5642.30, -99530.52, -99447.67, -119160.50, -105222.71, 0.06, 0.00, 0.00
34, -5529.06, 4756.41, -5683.87, -5624.68, -99512.35, -99429.56, -119141.09, -105203.73, 0.06, 0.00, 0.00
35, -5542.34, 4777.22, -5695.94, -5636.17, -99524.38, -99441.61, -119154.04, -105216.85, 0.06, 0.00, 0.00
36, -5564.49, 4808.69, -5716.32, -5655.59, -99544.45, -99461.66, -119175.52, -105237.91, 0.06, 0.00, 0.00
37, -5551.75, 4789.60, -5704.59, -5644.35, -99532.85, -99449.93, -119163.07, -105225.26, 0.06, 0.00, 0.00
38, -5527.45, 4754.98, -5682.17, -5622.76, -99510.68, -99427.91, -119139.47, -105201.97, 0.06, 0.00, 0.00
39, -5533.44, 4765.93, -5687.27, -5627.70, -99515.93, -99433.20, -119145.30, -105208.00, 0.06, 0.00, 0.00
40, -5553.87, 4797.44, -5705.55, -5645.20, -99534.23, -99451.38, -119165.02, -105227.56, 0.06, 0.00, 0.00
41, -5549.63, 4789.78, -5701.84, -5641.67, -99530.55, -99447.58, -119160.86, -105223.11, 0.06, 0.00, 0.00
42, -5526.56, 4755.20, -5680.76, -5621.60, -99509.76, -99426.91, -119138.52, -105200.96, 0.06, 0.00, 0.00
43, -5525.06, 4755.74, -5678.93, -5619.72, -99507.99, -99425.27, -119137.09, -105199.73, 0.06, 0.00, 0.00
44, -5550.25, 4792.68, -5701.93, -5641.85, -99530.88, -99448.07, -119161.59, -105224.16, 0.07, 0.00, 0.00
45, -5551.59, 4793.51, -5703.38, -5643.03, -99532.23, -99449.37, -119162.78, -105225.10, 0.07, 0.00, 0.00
46, -5527.09, 4757.19, -5680.96, -5621.64, -99510.12, -99427.24, -119139.06, -105201.43, 0.07, 0.00, 0.00
47, -5523.83, 4753.01, -5677.95, -5618.87, -99507.19, -99424.38, -119136.05, -105198.73, 0.07, 0.00, 0.00
48, -5547.01, 4788.03, -5699.07, -5639.21, -99528.23, -99445.34, -119158.62, -105221.19, 0.07, 0.00, 0.00
49, -5554.07, 4797.67, -5705.66, -5645.40, -99534.75, -99451.76, -119165.51, -105227.78, 0.07, 0.00, 0.00
50, -5534.16, 4766.49, -5687.76, -5628.33, -99517.09, -99434.10, -119146.33, -105208.63, 0.07, 0.00, 0.00
51, -5523.34, 4751.71, -5677.75, -5618.80, -99507.21, -99424.36, -119135.84, -105198.52, 0.07, 0.00, 0.00
52, -5543.25, 4782.33, -5695.72, -5636.01, -99525.14, -99442.26, -119155.13, -105217.95, 0.07, 0.00, 0.00
53, -5557.07, 4801.62, -5708.48, -5648.33, -99537.91, -99455.00, -119168.59, -105231.05, 0.07, 0.00, 0.00
54, -5537.56, 4772.01, -5690.66, -5631.23, -99520.29, -99437.34, -119149.63, -105212.01, 0.07, 0.00, 0.00
55, -5519.85, 4747.73, -5674.24, -5615.43, -99504.04, -99421.25, -119132.47, -105195.15, 0.07, 0.00, 0.00
56, -5536.46, 4773.71, -5689.30, -5629.94, -99519.10, -99436.25, -119148.79, -105211.58, 0.07, 0.00, 0.00
57, -5555.64, 4800.91, -5707.09, -5646.97, -99536.70, -99453.75, -119167.56, -105229.93, 0.07, 0.00, 0.00
58, -5543.59, 4780.75, -5696.36, -5636.89, -99526.10, -99443.16, -119155.94, -105218.17, 0.07, 0.00, 0.00
59, -5523.12, 4751.24, -5677.52, -5618.87, -99507.59, -99424.67, -119136.11, -105198.62, 0.07, 0.00, 0.00
60, -5534.05, 4768.99, -5687.22, -5628.15, -99517.38, -99434.34, -119146.71, -105209.41, 0.07, 0.00, 0.00
61, -5556.02, 4801.02, -5707.41, -5647.44, -99537.37, -99454.28, -119168.03, -105230.47, 0.07, 0.00, 0.00
62, -5547.50, 4786.94, -5699.87, -5640.26, -99529.90, -99446.87, -119159.94, -105222.11, 0.07, 0.00, 0.00
63, -5525.35, 4753.97, -5679.51, -5620.99, -99509.94, -99426.86, -119138.41, -105200.88, 0.07, 0.00, 0.00
64, -5532.08, 4765.10, -5685.48, -5626.83, -99516.00, -99433.03, -119144.94, -105207.80, 0.07, 0.00, 0.00
65, -5553.96, 4798.49, -5705.35, -5645.76, -99535.65, -99452.72, -119166.22, -105228.79, 0.07, 0.00, 0.00
66, -5547.95, 4789.73, -5699.78, -5640.28, -99530.08, -99447.06, -119160.37, -105222.64, 0.07, 0.00, 0.00
67, -5522.45, 4752.49, -5676.45, -5617.93, -99507.05, -99423.95, -119135.66, -105198.17, 0.07, 0.00, 0.00
68, -5524.90, 4756.12, -5678.73, -5620.32, -99509.56, -99426.41, -119138.21, -105200.98, 0.07, 0.00, 0.00
69, -5549.42, 4792.62, -5701.28, -5641.92, -99531.84, -99448.80, -119162.20, -105224.84, 0.07, 0.00, 0.00
70, -5553.94, 4797.33, -5705.64, -5646.18, -99536.09, -99453.10, -119166.63, -105228.92, 0.07, 0.00, 0.00
71, -5531.48, 4763.09, -5685.26, -5626.69, -99515.98, -99432.98, -119144.65, -105207.16, 0.07, 0.00, 0.00
72, -5525.62, 4755.65, -5679.87, -5621.58, -99510.61, -99427.75, -119139.09, -105201.86, 0.07, 0.00, 0.00
73, -5548.19, 4789.78, -5700.32, -5641.29, -99531.06, -99448.09, -119161.08, -105223.74, 0.07, 0.00, 0.00
74, -5555.59, 4800.44, -5707.00, -5647.66, -99537.77, -99454.71, -119168.19, -105230.55, 0.07, 0.00, 0.00
75, -5533.76, 4767.49, -5687.09, -5628.55, -99518.03, -99434.97, -119146.98, -105209.32, 0.07, 0.00, 0.00
76, -5523.50, 4752.63, -5677.72, -5619.81, -99508.80, -99425.90, -119137.14, -105199.78, 0.07, 0.00, 0.00
77, -5543.41, 4782.96, -5695.83, -5637.27, -99526.86, -99443.96, -119156.61, -105219.29, 0.07, 0.00, 0.00
78, -5556.44, 4801.91, -5707.65, -5648.49, -99538.59, -99455.58, -119169.13, -105231.43, 0.07, 0.00, 0.00
79, -5537.94, 4773.86, -5690.80, -5632.35, -99521.90, -99438.82, -119151.16, -105213.34, 0.07, 0.00, 0.00
80, -5522.36, 4751.15, -5676.72, -5618.94, -99507.93, -99424.94, -119136.27, -105198.82, 0.07, 0.00, 0.00
81, -5537.89, 4775.32, -5690.84, -5632.44, -99522.05, -99439.02, -119151.42, -105214.15, 0.07, 0.00, 0.00
82, -5558.59, 4804.60, -5709.93, -5650.79, -99540.96, -99457.95, -119171.49, -105233.93, 0.07, 0.00, 0.00
83, -5545.62, 4784.17, -5698.20, -5639.66, -99529.34, -99446.30, -119158.98, -105221.15, 0.07, 0.00, 0.00
84, -5523.83, 4752.67, -5678.06, -5620.48, -99509.47, -99426.57, -119137.74, -105200.31, 0.07, 0.00, 0.00
85, -5534.87, 4769.93, -5688.05, -5630.09, -99519.55, -99436.60, -119148.56, -105211.36, 0.07, 0.00, 0.00
86, -5557.92, 4803.48, -5709.35, -5650.45, -99540.72, -99457.64, -119171.02, -105233.59, 0.07, 0.00, 0.00
87, -5549.60, 4790.27, -5701.75, -5643.17, -99533.30, -99450.04, -119162.87, -105225.23, 0.07, 0.00, 0.00
88, -5522.04, 4751.71, -5676.07, -5618.58, -99507.95, -99424.76, -119136.02, -105198.62, 0.07, 0.00, 0.00
89, -5526.56, 4759.76, -5680.16, -5622.56, -99511.91, -99428.83, -119140.49, -105203.45, 0.07, 0.00, 0.00
90, -5553.72, 4798.41, -5705.17, -5646.61, -99536.74, -99453.68, -119166.91, -105229.59, 0.07, 0.00, 0.00
91, -5552.49, 4795.14, -5704.14, -5645.74, -99535.76, -99452.67, -119165.77, -105228.01, 0.06, 0.00, 0.00
92, -5524.17, 4754.91, -5677.92, -5620.64, -99509.72, -99426.68, -119138.13, -105200.56, 0.06, 0.00, 0.00
93, -5520.34, 4751.60, -5674.10, -5616.86, -99506.03, -99423.10, -119134.34, -105197.25, 0.06, 0.00, 0.00
94, -5545.83, 4788.95, -5697.46, -5639.28, -99529.38, -99446.23, -119159.20, -105221.98, 0.06, 0.00, 0.00
95, -5550.70, 4795.07, -5702.06, -5643.64, -99533.99, -99450.69, -119163.98, -105226.35, 0.06, 0.00, 0.00
96, -5528.55, 4761.32, -5682.01, -5624.44, -99514.03, -99430.86, -119142.57, -105204.94, 0.06, 0.00, 0.00
97, -5520.77, 4751.15, -5674.71, -5617.55, -99506.92, -99423.88, -119135.04, -105197.88, 0.06, 0.00, 0.00
98, -5542.92, 4784.59, -5694.93, -5636.80, -99526.97, -99443.91, -119156.56, -105219.41, 0.06, 0.00, 0.00
99, -5553.45, 4799.14, -5704.63, -5646.12, -99536.70, -99453.46, -119166.91, -105229.26, 0.06, 0.00, 0.00
100, -5532.70, 4767.63, -5685.68, -5628.04, -99518.03, -99434.84, -119146.80, -105209.23, 0.06, 0.00, 0.00
101, -5522.80, 4752.41, -5676.92, -5619.76, -99509.43, -99426.28, -119137.41, -105200.20, 0.06, 0.00, 0.00
102, -5541.11, 4780.55, -5693.44, -5635.46, -99525.88, -99442.70, -119155.11, -105217.84, 0.06, 0.00, 0.00
103, -5555.28, 4801.53, -5706.27, -5647.66, -99538.62, -99455.36, -119168.81, -105231.25, 0.06, 0.00, 0.00
104, -5537.56, 4774.78, -5690.11, -5632.24, -99522.55, -99439.29, -119151.53, -105213.91, 0.06, 0.00, 0.00
105, -5518.67, 4748.02, -5672.69, -5615.54, -99505.27, -99422.14, -119133.16, -105195.84, 0.06, 0.00, 0.00
106, -5533.29, 4770.64, -5685.95, -5628.33, -99518.48, -99435.40, -119147.35, -105210.35, 0.06, 0.00, 0.00
107, -5553.72, 4800.24, -5704.66, -5646.41, -99537.23, -99454.06, -119167.34, -105229.91, 0.06, 0.00, 0.00
108, -5541.02, 4780.57, -5693.12, -5635.23, -99525.79, -99442.51, -119154.93, -105217.34, 0.06, 0.00, 0.00
109, -5520.75, 4750.39, -5674.77, -5617.78, -99507.66, -99424.53, -119135.33, -105198.15, 0.07, 0.00, 0.00
110, -5531.43, 4766.60, -5684.58, -5627.39, -99517.49, -99434.34, -119145.91, -105208.96, 0.07, 0.00, 0.00
111, -5554.39, 4800.31, -5705.44, -5647.39, -99538.20, -99454.95, -119168.08, -105230.78, 0.07, 0.00, 0.00
112, -5546.43, 4788.41, -5698.40, -5640.40, -99530.98, -99447.78, -119160.52, -105222.89, 0.07, 0.00, 0.00
113, -5522.42, 4753.21, -5676.61, -5619.56, -99509.31, -99426.30, -119137.41, -105200.05, 0.07, 0.00, 0.00
114, -5529.06, 4762.49, -5682.73, -5625.64, -99515.59, -99432.60, -119143.91, -105206.91, 0.07, 0.00, 0.00
115, -5554.10, 4799.23, -5705.73, -5647.62, -99538.44, -99455.23, -119168.34, -105231.00, 0.07, 0.00, 0.00
116, -5552.08, 4795.86, -5703.72, -5645.67, -99536.54, -99453.30, -119166.33, -105228.57, 0.07, 0.00, 0.00
117, -5527.68, 4759.58, -5681.41, -5624.44, -99514.52, -99431.33, -119142.66, -105205.12, 0.07, 0.00, 0.00
118, -5523.61, 4755.58, -5677.63, -5620.75, -99510.88, -99427.69, -119138.82, -105201.74, 0.07, 0.00, 0.00
119, -5547.73, 4791.41, -5699.63, -5641.76, -99532.78, -99449.48, -119162.22, -105225.04, 0.07, 0.00, 0.00
120, -5556.08, 4801.58, -5707.43, -5649.54, -99540.63, -99457.28, -119170.45, -105232.84, 0.07, 0.00, 0.00
121, -5533.13, 4767.09, -5686.51, -5629.44, -99519.89, -99436.65, -119148.16, -105210.66, 0.07, 0.00, 0.00
122, -5521.57, 4752.38, -5675.73, -5618.98, -99509.20, -99426.03, -119137.01, -105199.87, 0.07, 0.00, 0.00
123, -5543.99, 4785.84, -5696.30, -5638.58, -99529.52, -99446.35, -119158.80, -105221.70, 0.07, 0.00, 0.00
124, -5558.05, 4804.64, -5709.46, -5651.06, -99542.55, -99459.31, -119172.41, -105235.05, 0.07, 0.00, 0.00
125, -5537.31, 4773.55, -5690.62, -5632.93, -99523.84, -99440.59, -119152.36, -105215.00, 0.07, 0.00, 0.00
126, -5521.69, 4751.87, -5676.07, -5619.07, -99509.56, -99426.39, -119137.30, -105200.27, 0.07, 0.00, 0.00
127, -5540.86, 4780.55, -5693.64, -5635.93, -99527.09, -99443.84, -119155.89, -105218.95, 0.07, 0.00, 0.00
128, -5558.79, 4805.87, -5710.11, -5651.73, -99543.40, -99460.16, -119173.22, -105235.92, 0.07, 0.00, 0.00
129, -5541.42, 4780.01, -5694.26, -5636.51, -99527.62, -99444.30, -119156.45, -105218.91, 0.07, 0.00, 0.00
130, -5522.45, 4752.58, -5676.92, -5619.83, -99510.50, -99427.20, -119138.19, -105200.96, 0.07, 0.00, 0.00
131, -5535.90, 4773.39, -5689.12, -5631.57, -99522.75, -99439.47, -119151.29, -105214.27, 0.07, 0.00, 0.00
132, -5557.85, 4804.71, -5709.15, -5650.81, -99542.64, -99459.27, -119172.45, -105235.27, 0.07, 0.00, 0.00
133, -5547.64, 4788.32, -5700.03, -5641.96, -99533.52, -99450.10, -119162.55, -105225.13, 0.07, 0.00, 0.00
134, -5523.47, 4753.75, -5677.77, -5620.59, -99511.51, -99428.13, -119139.13, -105201.90, 0.07, 0.00, 0.00
135, -5529.44, 4764.65, -5683.11, -5625.64, -99516.84, -99433.50, -119145.10, -105208.12, 0.07, 0.00, 0.00
136, -5550.83, 4797.27, -5702.53, -5644.13, -99536.07, -99452.72, -119165.84, -105228.59, 0.07, 0.00, 0.00
137, -5546.16, 4789.26, -5698.33, -5640.06, -99531.84, -99448.49, -119161.26, -105223.60, 0.06, 0.00, 0.00
138, -5525.35, 4756.88, -5679.56, -5622.29, -99513.34, -99430.08, -119141.23, -105203.76, 0.06, 0.00, 0.00
139, -5525.33, 4758.78, -5679.18, -5622.00, -99513.23, -99429.97, -119141.21, -105204.05, 0.06, 0.00, 0.00
140, -5552.06, 4797.11, -5703.74, -5645.63, -99537.59, -99454.22, -119167.12, -105229.87, 0.06, 0.00, 0.00
141, -5554.61, 4799.12, -5706.22, -5647.82, -99540.05, -99456.61, -119169.53, -105232.03, 0.06, 0.00, 0.00
142, -5529.51, 4762.28, -5683.36, -5625.89, -99517.38, -99433.95, -119145.23, -105207.83, 0.06, 0.00, 0.00
143, -5520.59, 4752.38, -5674.71, -5617.42, -99508.80, -99425.48, -119136.52, -105199.47, 0.06, 0.00, 0.00
144, -5543.72, 4787.27, -5695.83, -5637.58, -99529.79, -99446.44, -119159.02, -105221.88, 0.06, 0.00, 0.00
145, -5550.94, 4797.09, -5702.49, -5643.86, -99536.36, -99452.97, -119166.06, -105228.59, 0.06, 0.00, 0.00
146, -5528.23, 4763.13, -5681.79, -5624.01, -99515.88, -99432.54, -119143.98, -105206.53, 0.06, 0.00, 0.00
147, -5519.92, 4750.84, -5674.19, -5616.93, -99508.55, -99425.16, -119136.05, -105198.95, 0.06, 0.00, 0.00
148, -5539.63, 4781.17, -5692.10, -5633.98, -99526.21, -99442.91, -119155.23, -105218.11, 0.06, 0.00, 0.00
149, -5553.76, 4800.62, -5705.10, -5646.30, -99539.11, -99455.85, -119168.92, -105231.43, 0.06, 0.00, 0.00
150, -5537.38, 4774.18, -5690.33, -5632.33, -99524.54, -99441.25, -119152.98, -105215.45, 0.06, 0.00, 0.00
151, -5519.85, 4749.99, -5674.19, -5616.81, -99508.64, -99425.30, -119136.07, -105198.91, 0.06, 0.00, 0.00
152, -5536.21, 4775.52, -5689.03, -5630.99, -99523.44, -99440.13, -119151.98, -105214.98, 0.06, 0.00, 0.00
153, -5555.68, 4802.96, -5706.85, -5648.04, -99541.14, -99457.70, -119170.76, -105233.38, 0.06, 0.00, 0.00
154, -5539.97, 4779.34, -5692.52, -5634.25, -99526.86, -99443.35, -119155.40, -105217.95, 0.06, 0.00, 0.00
155, -5518.96, 4749.30, -5673.23, -5615.67, -99507.66, -99424.29, -119135.04, -105197.92, 0.06, 0.00, 0.00
156, -5531.50, 4768.50, -5684.65, -5626.60, -99518.97, -99435.76, -119147.24, -105210.44, 0.06, 0.00, 0.00
157, -5553.02, 4800.06, -5704.37, -5645.49, -99538.66, -99455.24, -119168.21, -105231.14, 0.06, 0.00, 0.00
158, -5545.85, 4787.36, -5697.97, -5639.50, -99532.36, -99448.90, -119161.30, -105223.78, 0.06, 0.00, 0.00
159, -5521.10, 4751.87, -5675.31, -5617.69, -99509.90, -99426.45, -119137.30, -105200.13, 0.06, 0.00, 0.00
160, -5525.26, 4760.30, -5678.73, -5621.04, -99513.56, -99430.08, -119141.43, -105204.56, 0.06, 0.00, 0.00
161, -5550.34, 4796.80, -5701.73, -5643.03, -99536.34, -99452.90, -119165.88, -105228.74, 0.06, 0.00, 0.00
162, -5546.90, 4790.65, -5698.64, -5639.95, -99533.25, -99449.86, -119162.42, -105224.99, 0.06, 0.00, 0.00
163, -5523.32, 4755.31, -5677.16, -5619.50, -99512.09, -99428.60, -119139.63, -105202.37, 0.06, 0.00, 0.00
164, -5523.56, 4756.65, -5677.28, -5619.59, -99512.27, -99428.85, -119139.84, -105202.88, 0.06, 0.00, 0.00
165, -5547.12, 4792.15, -5698.67, -5639.97, -99533.56, -99450.04, -119162.66, -105225.59, 0.06, 0.00, 0.00
166, -5550.21, 4795.57, -5701.64, -5642.72, -99536.43, -99452.83, -119165.62, -105228.26, 0.06, 0.00, 0.00
167, -5523.09, 4756.72, -5676.83, -5618.74, -99511.62, -99428.18, -119139.31, -105202.02, 0.06, 0.00, 0.00
168, -5514.80, 4746.79, -5668.80, -5611.14, -99503.91, -99420.51, -119131.30, -105194.32, 0.06, 0.00, 0.00
169, -5539.12, 4782.58, -5691.07, -5632.55, -99526.13, -99442.64, -119154.91, -105217.95, 0.06, 0.00, 0.00
170, -5548.91, 4795.72, -5700.16, -5641.29, -99535.04, -99451.58, -119164.39, -105227.07, 0.06, 0.00, 0.00
171, -5528.08, 4763.85, -5681.30, -5623.27, -99516.22, -99432.89, -119144.25, -105206.88, 0.06, 0.00, 0.00
172, -5517.33, 4748.31, -5671.40, -5614.00, -99506.70, -99423.33, -119133.90, -105196.89, 0.06, 0.00, 0.00
173, -5538.36, 4779.65, -5690.64, -5632.55, -99525.92, -99442.44, -119154.38, -105217.46, 0.06, 0.00, 0.00
174, -5553.13, 4800.51, -5704.30, -5645.51, -99539.34, -99455.72, -119168.68, -105231.38, 0.06, 0.00, 0.00
175, -5535.16, 4772.99, -5687.87, -5629.69, -99523.02, -99439.42, -119151.16, -105213.79, 0.06, 0.00, 0.00
176, -5517.24, 4747.91, -5671.40, -5613.91, -99506.72, -99423.26, -119133.88, -105196.89, 0.06, 0.00, 0.00
177, -5534.65, 4773.91, -5687.40, -5629.51, -99522.75, -99439.31, -119150.93, -105214.10, 0.06, 0.00, 0.00
178, -5555.08, 4802.94, -5706.15, -5647.55, -99541.45, -99457.81, -119170.69, -105233.55, 0.06, 0.00, 0.00
179, -5542.25, 4782.56, -5694.49, -5636.33, -99529.79, -99446.20, -119158.24, -105220.77, 0.06, 0.00, 0.00
180, -5519.67, 4750.30, -5673.74, -5616.43, -99509.27, -99425.72, -119136.47, -105199.20, 0.06, 0.00, 0.00
181, -5529.69, 4766.38, -5682.73, -5625.00, -99518.21, -99434.75, -119146.20, -105209.16, 0.06, 0.00, 0.00
182, -5550.47, 4797.60, -5701.62, -5642.97, -99536.88, -99453.37, -119166.33, -105229.02, 0.06, 0.00, 0.00
183, -5541.51, 4783.97, -5693.37, -5635.14, -99528.67, -99445.16, -119157.52, -105220.01, 0.06, 0.00, 0.00
184, -5515.45, 4746.82, -5669.21, -5612.10, -99504.89, -99421.27, -119132.09, -105194.88, 0.06, 0.00, 0.00
185, -5520.52, 4755.24, -5673.72, -5616.39, -99509.45, -99425.95, -119137.03, -105200.13, 0.06, 0.00, 0.00
186, -5546.09, 4792.53, -5697.28, -5638.99, -99532.85, -99449.32, -119161.88, -105224.86, 0.06, 0.00, 0.00
187, -5543.88, 4788.44, -5695.38, -5637.04, -99530.84, -99447.31, -119159.76, -105222.33, 0.06, 0.00, 0.00
188, -5520.03, 4752.63, -5673.52, -5616.12, -99509.25, -99425.67, -119136.54, -105199.30, 0.06, 0.00, 0.00
189, -5516.54, 4749.59, -5669.94, -5612.79, -99505.80, -99422.37, -119133.09, -105196.23, 0.06, 0.00, 0.00
190, -5540.55, 4785.49, -5691.87, -5633.73, -99527.62, -99444.12, -119156.50, -105219.42, 0.06, 0.00, 0.00
191, -5548.57, 4794.69, -5699.76, -5641.24, -99535.49, -99451.85, -119164.61, -105227.12, 0.06, 0.00, 0.00
192, -5524.95, 4759.45, -5678.28, -5620.57, -99514.08, -99430.52, -119141.63, -105204.20, 0.06, 0.00, 0.00
193, -5518.13, 4750.17, -5671.96, -5614.74, -99507.99, -99424.49, -119135.09, -105198.05, 0.06, 0.00, 0.00
194, -5542.43, 4785.60, -5694.26, -5636.15, -99530.13, -99446.71, -119158.73, -105221.77, 0.06, 0.00, 0.00
195, -5551.10, 4798.38, -5702.09, -5643.59, -99537.88, -99454.28, -119167.02, -105229.75, 0.06, 0.00, 0.00
196, -5527.72, 4764.30, -5680.58, -5622.89, -99516.58, -99432.89, -119144.31, -105206.95, 0.06, 0.00, 0.00
197, -5515.72, 4746.75, -5669.59, -5612.37, -99505.70, -99422.14, -119132.60, -105195.71, 0.06, 0.00, 0.00
198, -5536.88, 4777.77, -5688.88, -5630.99, -99524.98, -99441.50, -119153.16, -105216.36, 0.06, 0.00, 0.00
199, -5554.45, 4802.18, -5705.13, -5646.61, -99541.19, -99457.52, -119170.24, -105233.04, 0.06, 0.00, 0.00
200, -5538.69, 4777.57, -5691.02, -5633.02, -99527.20, -99443.49, -119155.18, -105217.73, 0.06, 0.00, 0.00
201, -5519.92, 4750.73, -5673.72, -5616.48, -99510.09, -99426.39, -119137.01, -105199.89, 0.06, 0.00, 0.00
202, -5533.96, 4772.52, -5686.35, -5628.57, -99522.68, -99439.02, -119150.59, -105213.68, 0.06, 0.00, 0.00
203, -5553.49, 4801.31, -5704.28, -5645.58, -99540.48, -99456.74, -119169.55, -105232.32, 0.06, 0.00, 0.00
204, -5538.29, 4779.34, -5690.22, -5631.90, -99526.48, -99442.70, -119154.71, -105217.28, 0.06, 0.00, 0.00
205, -5513.93, 4744.92, -5667.69, -5610.18, -99504.13, -99420.42, -119131.09, -105193.95, 0.06, 0.00, 0.00
206, -5522.53, 4758.98, -5675.26, -5617.44, -99511.80, -99428.13, -119139.40, -105202.48, 0.06, 0.00, 0.00
207, -5549.87, 4797.22, -5700.72, -5642.00, -99537.12, -99453.32, -119166.13, -105228.99, 0.06, 0.00, 0.00
208, -5544.93, 4788.37, -5696.48, -5637.91, -99532.88, -99449.03, -119161.33, -105223.94, 0.06, 0.00, 0.00
209, -5520.61, 4752.58, -5674.17, -5616.57, -99510.70, -99427.09, -119137.68, -105200.52, 0.06, 0.00, 0.00
210, -5524.57, 4759.27, -5677.81, -5620.21, -99514.41, -99430.88, -119141.66, -105204.88, 0.06, 0.00, 0.00
211, -5547.57, 4794.00, -5698.62, -5639.99, -99535.06, -99451.47, -119163.96, -105226.98, 0.06, 0.00, 0.00
212, -5548.42, 4793.69, -5699.63, -5640.80, -99536.07, -99452.36, -119164.74, -105227.45, 0.06, 0.00, 0.00
213, -5522.74, 4756.09, -5676.07, -5618.18, -99512.78, -99429.14, -119139.82, -105202.66, 0.06, 0.00, 0.00
214, -5519.03, 4752.00, -5672.52, -5614.85, -99509.34, -99425.70, -119136.29, -105199.40, 0.06, 0.00, 0.00
215, -5543.21, 4788.03, -5694.58, -5636.04, -99531.31, -99447.63, -119159.78, -105222.76, 0.06, 0.00, 0.00
216, -5551.86, 4798.67, -5702.69, -5643.84, -99539.40, -99455.67, -119168.14, -105230.80, 0.06, 0.00, 0.00
217, -5525.57, 4760.94, -5678.44, -5620.44, -99515.35, -99431.58, -119142.57, -105205.27, 0.06, 0.00, 0.00
218, -5516.12, 4748.09, -5669.68, -5612.12, -99506.77, -99422.95, -119133.34, -105196.42, 0.06, 0.00, 0.00
219, -5538.16, 4781.22, -5689.93, -5631.50, -99526.81, -99443.04, -119154.89, -105218.04, 0.06, 0.00, 0.00
220, -5552.49, 4800.35, -5703.25, -5644.26, -99540.02, -99456.19, -119168.81, -105231.70, 0.06, 0.00, 0.00
221, -5531.59, 4769.04, -5684.03, -5625.87, -99521.02, -99437.30, -119148.36, -105211.18, 0.06, 0.00, 0.00
222, -5515.49, 4746.68, -5669.05, -5611.49, -99506.27, -99422.61, -119132.70, -105195.93, 0.06, 0.00, 0.00
223, -5530.92, 4771.63, -5682.89, -5624.59, -99520.00, -99436.29, -119147.69, -105211.06, 0.06, 0.00, 0.00
224, -5549.40, 4797.78, -5699.94, -5640.98, -99537.03, -99453.13, -119165.73, -105228.63, 0.06, 0.00, 0.00
225, -5534.96, 4774.91, -5686.95, -5628.48, -99524.07, -99440.20, -119151.71, -105214.48, 0.06, 0.00, 0.00
226, -5513.97, 4745.23, -5667.53, -5609.82, -99504.76, -99421.02, -119131.24, -105194.37, 0.06, 0.00, 0.00
227, -5526.09, 4764.59, -5678.42, -5620.15, -99515.59, -99431.93, -119143.00, -105206.41, 0.06, 0.00, 0.00
228, -5548.53, 4796.64, -5699.00, -5639.86, -99536.16, -99452.30, -119164.77, -105227.94, 0.06, 0.00, 0.00
229, -5538.02, 4780.03, -5689.55, -5630.74, -99526.66, -99442.82, -119154.55, -105217.39, 0.06, 0.00, 0.00
230, -5516.21, 4747.82, -5669.74, -5611.81, -99507.05, -99423.30, -119133.50, -105196.63, 0.06, 0.00, 0.00
231, -5522.07, 4758.35, -5674.68, -5616.59, -99512.06, -99428.42, -119139.13, -105202.52, 0.06, 0.00, 0.00
232, -5545.18, 4792.75, -5695.72, -5636.71, -99532.96, -99449.32, -119161.48, -105224.66, 0.06, 0.00, 0.00
233, -5539.90, 4784.30, -5690.96, -5632.13, -99528.29, -99444.52, -119156.50, -105219.20, 0.06, 0.00, 0.00
234, -5516.99, 4749.83, -5670.23, -5612.37, -99507.82, -99424.02, -119134.33, -105197.34, 0.06, 0.00, 0.00
235, -5517.46, 4752.23, -5670.48, -5612.63, -99508.11, -99424.34, -119134.81, -105198.23, 0.06, 0.00, 0.00
236, -5543.08, 4789.58, -5693.93, -5635.12, -99531.38, -99447.58, -119159.70, -105222.89, 0.06, 0.00, 0.00
237, -5545.51, 4791.72, -5696.32, -5637.47, -99533.79, -99449.97, -119162.11, -105224.95, 0.06, 0.00, 0.00
238, -5520.30, 4754.62, -5673.23, -5615.38, -99510.99, -99427.17, -119137.61, -105200.70, 0.06, 0.00, 0.00
239, -5516.75, 4749.99, -5669.90, -5612.37, -99507.77, -99424.02, -119134.26, -105197.72, 0.07, 0.00, 0.00
240, -5539.43, 4784.48, -5690.60, -5632.17, -99528.27, -99444.59, -119156.38, -105219.63, 0.06, 0.00, 0.00
241, -5547.99, 4795.72, -5698.60, -5639.81, -99536.16, -99452.45, -119164.70, -105227.43, 0.06, 0.00, 0.00
242, -5526.20, 4762.67, -5678.84, -5620.93, -99516.58, -99432.83, -119143.55, -105206.35, 0.07, 0.00, 0.00
243, -5513.77, 4746.08, -5667.26, -5609.80, -99505.18, -99421.41, -119131.51, -105194.73, 0.07, 0.00, 0.00
244, -5534.31, 4777.19, -5685.95, -5627.70, -99523.73, -99439.94, -119151.55, -105214.75, 0.07, 0.00, 0.00
245, -5550.47, 4798.94, -5700.97, -5642.16, -99538.71, -99454.77, -119167.27, -105230.16, 0.07, 0.00, 0.00
246, -5532.46, 4770.89, -5684.76, -5626.56, -99522.62, -99438.59, -119149.73, -105212.67, 0.07, 0.00, 0.00
247, -5518.62, 4750.19, -5672.09, -5614.62, -99510.23, -99426.32, -119136.42, -105199.69, 0.07, 0.00, 0.00
248, -5532.64, 4773.35, -5684.56, -5626.58, -99522.66, -99438.75, -119150.13, -105213.28, 0.07, 0.00, 0.00
249, -5550.38, 4799.32, -5700.95, -5642.07, -99538.71, -99454.80, -119167.38, -105230.24, 0.07, 0.00, 0.00
250, -5535.34, 4776.37, -5687.33, -5628.82, -99525.03, -99441.25, -119152.66, -105215.42, 0.07, 0.00, 0.00
251, -5511.96, 4743.76, -5665.63, -5608.05, -99503.50, -99419.86, -119129.74, -105192.91, 0.07, 0.00, 0.00
252, -5523.18, 4761.55, -5675.78, -5617.71, -99513.67, -99430.01, -119140.74, -105204.09, 0.07, 0.00, 0.00
253, -5546.67, 4795.14, -5697.39, -5638.32, -99535.22, -99451.29, -119163.49, -105226.66, 0.07, 0.00, 0.00
254, -5537.38, 4780.61, -5689.06, -5630.36, -99526.93, -99442.93, -119154.53, -105217.41, 0.07, 0.00, 0.00
255, -5513.55, 4745.97, -5667.17, -5609.51, -99505.25, -99421.43, -119131.46, -105194.59, 0.07, 0.00, 0.00
0, -5520.43, 4756.97, -5673.36, -5615.50, -99511.51, -99427.71, -119138.33, -105201.59, 0.07, 0.00, 0.00
1, -5547.10, 4794.99, -5697.82, -5639.21, -99535.89, -99452.09, -119164.27, -105227.36, 0.07, 0.00, 0.00
2, -5543.43, 4788.86, -5694.62, -5635.93, -99532.63, -99448.70, -119160.66, -105223.45, 0.07, 0.00, 0.00
3, -5516.25, 4749.95, -5669.52, -5611.72, -99507.84, -99423.87, -119134.16, -105197.25, 0.07, 0.00, 0.00
4, -5512.63, 4747.35, -5665.81, -5608.03, -99504.17, -99420.31, -119130.59, -105193.97, 0.07, 0.00, 0.00
5, -5536.79, 4783.43, -5687.83, -5629.11, -99526.01, -99442.10, -119154.02, -105217.30, 0.07, 0.01, 0.07
6, -5540.64, 4787.77, -5691.45, -5632.66, -99529.72, -99445.75, -119157.86, -105220.74, 0.07, 0.00, 0.00
7, -5517.44, 4752.74, -5670.30, -5612.50, -99508.76, -99424.84, -119135.27, -105198.28, 0.07, 0.00, 0.00
8, -5512.30, 4745.83, -5665.70, -5608.10, -99504.17, -99420.40, -119130.41, -105193.72, 0.07, 0.00, 0.00
9, -5537.11, 4782.20, -5688.54, -5630.02, -99526.88, -99443.13, -119154.69, -105217.91, 0.07, 0.00, 0.00
10, -5544.98, 4793.51, -5695.67, -5636.71, -99533.97, -99450.15, -119162.27, -105225.17, 0.07, 0.00, 0.00
11, -5522.71, 4760.27, -5675.31, -5617.22, -99513.80, -99429.92, -119140.63, -105203.53, 0.07, 0.00, 0.00
12, -5510.64, 4743.29, -5664.24, -5606.53, -99502.79, -99419.02, -119128.89, -105192.16, 0.07, 0.00, 0.00
13, -5529.29, 4772.19, -5681.01, -5622.56, -99519.46, -99435.69, -119147.09, -105210.24, 0.07, 0.00, 0.00
14, -5543.84, 4793.24, -5694.46, -5635.43, -99532.83, -99448.92, -119161.30, -105224.16, 0.07, 0.00, 0.00
15, -5526.45, 4766.33, -5678.73, -5620.35, -99517.20, -99433.20, -119144.31, -105207.18, 0.07, 0.00, 0.00
16, -5505.84, 4738.39, -5659.51, -5601.82, -99498.25, -99414.32, -119124.31, -105187.44, 0.07, 0.00, 0.00
17, -5520.86, 4761.97, -5673.07, -5614.80, -99511.86, -99427.98, -119139.02, -105202.26, 0.07, 0.00, 0.00
18, -5543.77, 4793.60, -5694.31, -5635.25, -99532.94, -99449.08, -119161.21, -105224.23, 0.07, 0.00, 0.00
19, -5531.54, 4774.11, -5683.33, -5624.79, -99522.08, -99438.15, -119149.37, -105212.27, 0.07, 0.00, 0.00
20, -5509.79, 4742.59, -5663.31, -5605.68, -99502.30, -99418.41, -119128.29, -105191.51, 0.07, 0.00, 0.00
21, -5520.14, 4758.95, -5672.58, -5614.62, -99511.59, -99427.77, -119138.41, -105201.81, 0.07, 0.00, 0.00
22, -5544.93, 4794.25, -5695.43, -5636.46, -99534.33, -99450.26, -119162.48, -105225.52, 0.07, 0.00, 0.00
23, -5539.81, 4784.41, -5691.00, -5632.30, -99529.99, -99445.95, -119157.52, -105220.34, 0.07, 0.00, 0.00
24, -5514.47, 4748.02, -5667.71, -5609.97, -99506.90, -99422.97, -119132.88, -105196.00, 0.07, 0.00, 0.00
25, -5515.23, 4752.18, -5668.00, -5610.15, -99507.26, -99423.33, -119133.59, -105197.09, 0.07, 0.00, 0.00
26, -5540.24, 4788.88, -5691.00, -5632.21, -99530.10, -99446.06, -119157.95, -105221.21, 0.07, 0.00, 0.00
27, -5538.16, 4784.93, -5689.06, -5630.20, -99528.09, -99444.05, -119155.83, -105218.66, 0.07, 0.00, 0.00
28, -5514.22, 4749.08, -5667.26, -5609.26, -99506.43, -99422.50, -119132.70, -105195.62, 0.07, 0.00, 0.00
29, -5512.50, 4747.73, -5665.47, -5607.67, -99504.80, -99420.98, -119131.02, -105194.32, 0.07, 0.00, 0.00
30, -5536.77, 4783.76, -5687.56, -5628.84, -99526.77, -99442.84, -119154.48, -105217.73, 0.07, 0.00, 0.00
31, -5541.85, 4790.00, -5692.30, -5633.29, -99531.40, -99447.36, -119159.41, -105222.22, 0.06, 0.00, 0.00
32, -5518.00, 4754.66, -5670.62, -5612.50, -99509.83, -99425.88, -119136.27, -105199.20, 0.07, 0.00, 0.00
33, -5511.43, 4745.48, -5664.65, -5606.96, -99504.17, -99420.13, -119130.08, -105193.50, 0.07, 0.00, 0.00
34, -5534.81, 4780.21, -5686.10, -5627.43, -99525.52, -99441.45, -119152.83, -105216.25, 0.06, 0.00, 0.00
35, -5544.53, 4794.07, -5695.02, -5635.79, -99534.17, -99450.22, -119162.20, -105225.26, 0.06, 0.00, 0.00
36, -5522.49, 4761.28, -5674.86, -5616.55, -99514.19, -99430.30, -119140.74, -105203.78, 0.07, 0.00, 0.00
37, -5509.37, 4742.44, -5662.64, -5604.88, -99502.20, -99418.34, -119127.89, -105191.35, 0.07, 0.00, 0.00
38, -5528.12, 4771.07, -5679.67, -5621.11, -99519.13, -99435.22, -119146.10, -105209.61, 0.07, 0.00, 0.00
39, -5543.19, 4793.24, -5693.53, -5634.14, -99532.76, -99448.74, -119160.81, -105223.88, 0.07, 0.00, 0.00
40, -5525.93, 4767.18, -5677.81, -5619.18, -99517.23, -99433.19, -119144.05, -105206.95, 0.07, 0.00, 0.00
41, -5506.33, 4739.53, -5659.71, -5602.00, -99499.30, -99415.41, -119125.05, -105188.34, 0.07, 0.00, 0.00
42, -5521.69, 4762.78, -5673.68, -5615.43, -99513.31, -99429.43, -119140.07, -105203.55, 0.07, 0.00, 0.00
43, -5544.98, 4795.43, -5695.40, -5636.24, -99534.82, -99450.82, -119162.76, -105226.02, 0.07, 0.00, 0.00
44, -5535.70, 4779.34, -5687.18, -5628.42, -99526.52, -99442.62, -119153.62, -105216.70, 0.07, 0.00, 0.00
45, -5511.98, 4745.45, -5665.30, -5607.54, -99504.89, -99421.16, -119130.59, -105193.99, 0.07, 0.00, 0.00
46, -5518.71, 4757.57, -5671.11, -5613.10, -99510.79, -99426.97, -119137.12, -105200.72, 0.07, 0.00, 0.00
47, -5542.03, 4791.92, -5692.45, -5633.58, -99532.00, -99448.05, -119159.76, -105223.11, 0.07, 0.00, 0.00
48, -5537.89, 4783.85, -5688.94, -5630.29, -99528.54, -99444.52, -119155.83, -105218.98, 0.07, 0.00, 0.00
49, -5513.10, 4747.69, -5666.30, -5608.48, -99506.12, -99422.03, -119131.80, -105195.09, 0.07, 0.00, 0.00
50, -5514.53, 4751.56, -5667.26, -5609.33, -99507.21, -99423.10, -119133.03, -105196.65, 0.07, 0.00, 0.00
51, -5539.72, 4788.59, -5690.33, -5631.54, -99530.10, -99446.08, -119157.64, -105221.02, 0.07, 0.00, 0.00
52, -5539.75, 4787.59, -5690.44, -5631.57, -99530.26, -99446.10, -119157.59, -105220.63, 0.07, 0.00, 0.00
53, -5515.56, 4751.42, -5668.38, -5610.53, -99508.31, -99424.31, -119134.23, -105197.30, 0.07, 0.00, 0.00
54, -5511.94, 4747.38, -5664.87, -5607.18, -99504.98, -99421.00, -119130.77, -105194.16, 0.07, 0.00, 0.00
55, -5536.86, 4784.10, -5687.71, -5629.09, -99527.76, -99443.55, -119154.98, -105218.28, 0.07, 0.00, 0.00
56, -5545.83, 4795.07, -5696.16, -5637.24, -99536.13, -99451.94, -119163.63, -105226.69, 0.07, 0.00, 0.00
57, -5523.85, 4761.64, -5676.25, -5618.22, -99516.42, -99432.27, -119142.35, -105205.45, 0.07, 0.00, 0.00
58, -5512.45, 4746.88, -5665.59, -5607.99, -99505.94, -99421.95, -119131.46, -105194.88, 0.07, 0.00, 0.00
59, -5532.66, 4778.09, -5683.89, -5625.46, -99523.98, -99440.13, -119151.09, -105214.51, 0.07, 0.00, 0.00
60, -5543.25, 4793.31, -5693.37, -5634.41, -99533.32, -99449.39, -119161.03, -105224.16, 0.07, 0.00, 0.00
61, -5523.09, 4762.91, -5675.02, -5616.70, -99515.17, -99431.11, -119141.48, -105204.52, 0.07, 0.00, 0.00
62, -5508.19, 4741.83, -5661.45, -5603.72, -99501.72, -99417.63, -119127.17, -105190.55, 0.07, 0.00, 0.00
63, -5525.87, 4769.01, -5677.43, -5619.03, -99517.72, -99433.68, -119144.34, -105207.84, 0.07, 0.00, 0.00
64, -5547.95, 4798.87, -5698.09, -5639.12, -99538.30, -99454.22, -119166.02, -105229.06, 0.07, 0.00, 0.00
65, -5534.00, 4776.41, -5685.50, -5627.10, -99525.84, -99441.70, -119152.32, -105215.31, 0.07, 0.00, 0.00
66, -5512.36, 4746.10, -5665.47, -5607.81, -99505.98, -99421.90, -119131.24, -105194.62, 0.07, 0.00, 0.00
67, -5525.08, 4766.08, -5677.03, -5618.83, -99517.52, -99433.43, -119143.73, -105207.24, 0.07, 0.00, 0.00
68, -5547.08, 4797.60, -5697.10, -5638.03, -99537.41, -99453.28, -119164.95, -105228.12, 0.07, 0.00, 0.00
69, -5534.56, 4779.05, -5685.55, -5626.92, -99525.85, -99441.77, -119152.61, -105215.67, 0.07, 0.00, 0.00
70, -5511.07, 4745.05, -5664.09, -5606.44, -99504.60, -99420.60, -119129.90, -105193.23, 0.07, 0.00, 0.00
71, -5517.33, 4756.05, -5669.61, -5611.58, -99510.21, -99426.19, -119136.07, -105199.64, 0.07, 0.00, 0.00
72, -5539.61, 4789.67, -5689.79, -5630.83, -99530.21, -99446.17, -119157.59, -105221.05, 0.06, 0.00, 0.00
73, -5534.85, 4781.71, -5685.57, -5626.83, -99525.99, -99441.81, -119153.03, -105216.07, 0.06, 0.00, 0.00
74, -5511.43, 4746.68, -5664.33, -5606.60, -99504.98, -99420.82, -119130.37, -105193.68, 0.06, 0.00, 0.00
75, -5513.46, 4750.44, -5666.10, -5608.34, -99506.66, -99422.66, -119132.31, -105196.00, 0.06, 0.00, 0.00
76, -5542.23, 4790.90, -5692.74, -5633.98, -99533.25, -99449.08, -119160.32, -105223.88, 0.06, 0.00, 0.00
77, -5544.31, 4792.75, -5694.80, -5635.93, -99535.27, -99451.06, -119162.31, -105225.44, 0.06, 0.00, 0.00
78, -5516.32, 4752.90, -5668.98, -5611.05, -99509.59, -99425.38, -119134.99, -105198.28, 0.06, 0.00, 0.00
79, -5513.24, 4748.65, -5666.08, -5608.61, -99506.92, -99422.86, -119132.11, -105195.77, 0.06, 0.00, 0.00
80, -5541.27, 4788.44, -5692.03, -5633.78, -99532.88, -99448.67, -119159.58, -105223.23, 0.06, 0.00, 0.00
81, -5549.96, 4799.97, -5700.16, -5641.56, -99540.79, -99456.68, -119168.01, -105231.30, 0.06, 0.00, 0.00
82, -5526.09, 4764.74, -5678.21, -5620.52, -99518.95, -99434.84, -119144.77, -105208.02, 0.06, 0.00, 0.00
83, -5512.21, 4746.73, -5665.16, -5607.96, -99506.03, -99422.01, -119131.20, -105194.84, 0.06, 0.00, 0.00
84, -5531.34, 4776.37, -5682.31, -5624.46, -99523.13, -99439.11, -119149.68, -105213.34, 0.06, 0.00, 0.00
85, -5546.21, 4796.82, -5696.05, -5637.67, -99536.88, -99452.63, -119164.08, -105227.36, 0.06, 0.00, 0.00
86, -5526.69, 4767.43, -5678.33, -5620.59, -99519.15, -99434.95, -119145.05, -105208.41, 0.06, 0.00, 0.00
87, -5509.59, 4743.46, -5662.55, -5605.55, -99503.59, -99419.48, -119128.54, -105192.24, 0.06, 0.00, 0.00
88, -5528.03, 4770.96, -5679.60, -5622.04, -99520.40, -99436.29, -119146.64, -105210.33, 0.06, 0.00, 0.00
89, -5548.08, 4799.21, -5698.04, -5639.77, -99538.73, -99454.44, -119166.11, -105229.35, 0.06, 0.00, 0.00
90, -5533.82, 4777.08, -5685.14, -5627.36, -99525.97, -99441.68, -119152.27, -105215.38, 0.06, 0.00, 0.00
91, -5511.81, 4745.81, -5664.87, -5607.87, -99505.85, -99421.67, -119130.86, -105194.28, 0.06, 0.00, 0.00
92, -5522.56, 4763.02, -5674.42, -5616.97, -99515.30, -99431.15, -119141.21, -105204.83, 0.06, 0.00, 0.00
93, -5544.06, 4794.67, -5694.11, -5635.79, -99534.77, -99450.57, -119162.04, -105225.41, 0.06, 0.00, 0.00
94, -5533.89, 4779.21, -5684.85, -5626.81, -99525.56, -99441.27, -119152.01, -105215.23, 0.06, 0.00, 0.00
95, -5511.63, 4746.08, -5664.49, -5607.54, -99505.54, -99421.27, -119130.52, -105193.99, 0.06, 0.00, 0.00
96, -5520.03, 4758.44, -5672.25, -5615.25, -99513.23, -99429.18, -119138.82, -105202.48, 0.06, 0.00, 0.00
97, -5544.89, 4794.85, -5695.02, -5637.13, -99535.71, -99451.73, -119162.87, -105226.33, 0.06, 0.00, 0.00
98, -5543.01, 4790.45, -5693.57, -5635.68, -99534.30, -99450.15, -119161.03, -105224.32, 0.06, 0.00, 0.00
99, -5517.17, 4752.63, -5669.68, -5612.95, -99510.88, -99426.57, -119135.91, -105199.24, 0.06, 0.00, 0.00
100, -5516.70, 4753.10, -5669.03, -5612.32, -99510.34, -99426.13, -119135.40, -105199.13, 0.06, 0.00, 0.00
101, -5542.03, 4790.34, -5692.25, -5634.52, -99533.34, -99449.10, -119160.03, -105223.65, 0.06, 0.00, 0.00
102, -5543.17, 4792.08, -5693.21, -5635.25, -99534.30, -99449.93, -119161.10, -105224.32, 0.06, 0.00, 0.00
103, -5518.67, 4755.91, -5671.04, -5613.91, -99512.11, -99427.91, -119137.45, -105200.70, 0.06, 0.00, 0.00
104, -5512.68, 4748.05, -5665.54, -5608.79, -99506.68, -99422.61, -119131.71, -105195.45, 0.06, 0.00, 0.00
105, -5533.02, 4779.88, -5683.74, -5626.14, -99524.83, -99440.70, -119151.31, -105215.05, 0.06, 0.00, 0.00
106, -5541.96, 4792.33, -5691.85, -5633.91, -99533.03, -99448.70, -119159.94, -105223.27, 0.06, 0.00, 0.00
107, -5521.17, 4760.43, -5672.94, -5615.85, -99514.37, -99430.01, -119139.82, -105203.09, 0.06, 0.00, 0.00
108, -5507.72, 4741.97, -5660.47, -5603.78, -99501.96, -99417.74, -119126.73, -105190.41, 0.06, 0.00, 0.00
109, -5528.28, 4772.77, -5679.29, -5621.82, -99520.71, -99436.41, -119146.75, -105210.48, 0.06, 0.00, 0.00
110, -5542.63, 4793.56, -5692.43, -5634.36, -99533.70, -99449.32, -119160.63, -105224.05, 0.06, 0.00, 0.00
111, -5524.14, 4765.82, -5675.62, -5618.20, -99516.98, -99432.60, -119142.66, -105206.04, 0.06, 0.00, 0.00
112, -5507.63, 4741.79, -5660.44, -5603.74, -99502.05, -99417.74, -119126.68, -105190.32, 0.06, 0.00, 0.00
113, -5523.05, 4765.50, -5674.33, -5617.02, -99515.82, -99431.66, -119141.66, -105205.39, 0.06, 0.00, 0.00
114, -5541.67, 4792.93, -5691.33, -5633.22, -99532.63, -99448.36, -119159.70, -105223.05, 0.06, 0.00, 0.00
115, -5527.30, 4771.38, -5678.26, -5620.50, -99519.59, -99435.35, -119145.73, -105208.92, 0.06, 0.00, 0.00
116, -5505.77, 4739.93, -5658.54, -5601.55, -99500.11, -99415.82, -119124.76, -105188.36, 0.06, 0.00, 0.00
117, -5513.64, 4753.84, -5665.43, -5608.19, -99507.03, -99422.75, -119132.31, -105196.23, 0.06, 0.00, 0.00
118, -5538.56, 4789.33, -5688.30, -5630.16, -99529.79, -99445.52, -119156.50, -105220.07, 0.06, 0.00, 0.00
119, -5533.71, 4779.96, -5684.23, -5626.20, -99525.77, -99441.39, -119151.91, -105215.13, 0.06, 0.01, 0.06
120, -5508.45, 4743.55, -5660.96, -5603.90, -99502.84, -99418.41, -119127.44, -105190.86, 0.07, 0.00, 0.00
121, -5512.77, 4751.11, -5664.85, -5607.52, -99506.68, -99422.34, -119131.71, -105195.40, 0.07, 0.00, 0.00
122, -5538.14, 4788.17, -5688.12, -5629.85, -99529.72, -99445.37, -119156.30, -105219.89, 0.07, 0.00, 0.00
123, -5536.62, 4784.97, -5686.75, -5628.64, -99528.47, -99444.05, -119154.82, -105218.02, 0.07, 0.00, 0.00
124, -5512.28, 4748.72, -5664.47, -5607.31, -99506.43, -99422.05, -119131.15, -105194.55, 0.07, 0.00, 0.00
125, -5511.47, 4748.09, -5663.69, -5606.62, -99505.72, -99421.47, -119130.41, -105194.16, 0.07, 0.00, 0.00
126, -5538.02, 4786.49, -5688.23, -5630.18, -99530.05, -99445.73, -119156.30, -105219.98, 0.07, 0.00, 0.00
127, -5545.29, 4795.10, -5695.16, -5636.91, -99536.98, -99452.43, -119163.38, -105226.73, 0.07, 0.00, 0.00
128, -5521.62, 4759.78, -5673.59, -5616.26, -99515.39, -99431.09, -119140.34, -105203.84, 0.07, 0.00, 0.00
129, -5511.45, 4746.95, -5664.02, -5607.09, -99506.03, -99421.72, -119130.48, -105194.39, 0.07, 0.00, 0.00
130, -5535.50, 4782.29, -5686.10, -5628.35, -99528.09, -99443.66, -119153.88, -105217.80, 0.07, 0.00, 0.00
131, -5547.21, 4798.25, -5696.97, -5638.65, -99538.73, -99454.30, -119165.33, -105228.66, 0.07, 0.00, 0.00
132, -5525.55, 4765.82, -5677.21, -5619.59, -99518.95, -99434.55, -119144.16, -105207.45, 0.07, 0.00, 0.00
133, -5509.84, 4744.47, -5662.50, -5605.57, -99504.58, -99420.22, -119128.94, -105192.65, 0.07, 0.00, 0.00
134, -5530.49, 4774.89, -5681.46, -5623.79, -99523.42, -99439.09, -119149.13, -105212.92, 0.07, 0.00, 0.00
135, -5548.80, 4800.24, -5698.62, -5640.10, -99540.27, -99455.85, -119166.96, -105230.35, 0.07, 0.00, 0.00
136, -5531.50, 4774.18, -5682.82, -5625.04, -99524.67, -99440.18, -119150.04, -105213.39, 0.07, 0.00, 0.00
137, -5511.65, 4746.12, -5664.33, -5607.43, -99506.63, -99422.03, -119130.81, -105194.48, 0.07, 0.00, 0.00
138, -5522.65, 4764.92, -5674.03, -5616.59, -99516.20, -99431.69, -119141.52, -105205.26, 0.07, 0.00, 0.00
139, -5542.38, 4793.91, -5692.03, -5633.67, -99533.90, -99449.30, -119160.52, -105223.98, 0.07, 0.00, 0.00
140, -5532.82, 4777.73, -5683.71, -5625.69, -99525.66, -99441.05, -119151.29, -105214.66, 0.07, 0.00, 0.00
141, -5510.93, 4745.48, -5663.66, -5606.44, -99505.76, -99421.27, -119130.01, -105193.66, 0.07, 0.00, 0.00
142, -5517.91, 4757.66, -5669.65, -5612.23, -99511.80, -99427.28, -119136.70, -105200.56, 0.07, 0.00, 0.00
143, -5541.13, 4791.90, -5690.91, -5632.55, -99532.80, -99448.25, -119159.20, -105222.84, 0.07, 0.00, 0.00
144, -5537.73, 4784.73, -5688.12, -5629.85, -99530.03, -99445.43, -119155.91, -105219.36, 0.07, 0.00, 0.00
145, -5511.27, 4746.93, -5663.75, -5606.53, -99505.96, -99421.47, -119130.34, -105193.88, 0.07, 0.00, 0.00
146, -5512.86, 4751.09, -5665.00, -5607.78, -99507.30, -99422.88, -119131.91, -105195.77, 0.07, 0.00, 0.00
147, -5539.92, 4789.84, -5689.99, -5631.66, -99532.00, -99447.49, -119158.24, -105221.88, 0.07, 0.00, 0.00
148, -5541.38, 4790.27, -5691.42, -5633.09, -99533.45, -99448.92, -119159.58, -105222.89, 0.07, 0.00, 0.00
149, -5515.87, 4752.81, -5668.02, -5610.53, -99510.32, -99425.79, -119134.77, -105198.17, 0.07, 0.00, 0.00
150, -5511.36, 4747.82, -5663.73, -5606.58, -99506.19, -99421.74, -119130.62, -105194.26, 0.07, 0.00, 0.00
151, -5535.83, 4784.12, -5686.19, -5628.19, -99528.54, -99444.05, -119154.42, -105218.11, 0.07, 0.00, 0.00
152, -5540.89, 4791.45, -5690.84, -5632.51, -99533.01, -99448.54, -119159.25, -105222.64, 0.07, 0.00, 0.00
153, -5516.05, 4755.24, -5668.16, -5610.60, -99510.45, -99425.97, -119135.17, -105198.57, 0.07, 0.00, 0.00
154, -5508.59, 4744.20, -5661.34, -5604.27, -99503.84, -99419.35, -119127.93, -105191.87, 0.07, 0.00, 0.00
155, -5532.19, 4778.60, -5683.04, -5625.13, -99525.36, -99440.92, -119150.93, -105214.84, 0.07, 0.00, 0.00
156, -5545.27, 4796.73, -5695.18, -5636.62, -99537.41, -99452.90, -119163.72, -105227.07, 0.07, 0.00, 0.00
157, -5526.69, 4767.98, -5678.33, -5620.59, -99520.73, -99436.23, -119145.66, -105209.10, 0.07, 0.00, 0.00
158, -5513.01, 4747.85, -5665.76, -5608.83, -99508.48, -99423.95, -119132.38, -105196.27, 0.07, 0.00, 0.00
159, -5531.65, 4775.76, -5682.84, -5625.20, -99525.43, -99440.94, -119150.59, -105214.59, 0.07, 0.00, 0.00
160, -5548.35, 4800.33, -5698.24, -5639.81, -99540.59, -99456.03, -119166.87, -105230.40, 0.07, 0.00, 0.00
161, -5531.48, 4775.09, -5682.84, -5624.86, -99525.19, -99440.65, -119150.38, -105213.77, 0.07, 0.00, 0.00
162, -5510.11, 4745.01, -5663.06, -5605.93, -99505.63, -99421.16, -119129.66, -105193.38, 0.07, 0.00, 0.00
163, -5521.24, 4763.25, -5672.96, -5615.36, -99515.57, -99431.04, -119140.41, -105204.31, 0.07, 0.00, 0.00
164, -5543.68, 4795.41, -5693.53, -5635.14, -99536.02, -99451.42, -119162.20, -105225.86, 0.07, 0.00, 0.00
165, -5531.01, 4776.81, -5681.84, -5623.79, -99524.40, -99439.76, -119149.75, -105213.23, 0.07, 0.00, 0.00
166, -5509.24, 4744.45, -5662.05, -5604.83, -99504.76, -99420.27, -119128.70, -105192.40, 0.07, 0.00, 0.00
167, -5518.22, 4758.15, -5670.48, -5612.90, -99513.13, -99428.70, -119137.68, -105201.55, 0.07, 0.00, 0.00
168, -5542.47, 4793.76, -5692.72, -5634.18, -99535.17, -99450.66, -119161.23, -105224.86, 0.07, 0.00, 0.00
169, -5537.31, 4785.49, -5688.09, -5629.76, -99530.44, -99445.91, -119156.20, -105219.54, 0.07, 0.00, 0.00
170, -5511.29, 4747.82, -5664.09, -5606.80, -99506.81, -99422.30, -119130.93, -105194.41, 0.07, 0.00, 0.00
171, -5512.03, 4750.28, -5664.62, -5607.34, -99507.48, -99422.95, -119131.75, -105195.62, 0.07, 0.00, 0.00
172, -5536.73, 4786.67, -5687.27, -5628.91, -99529.84, -99445.23, -119155.70, -105219.42, 0.07, 0.00, 0.00
173, -5537.71, 4787.50, -5688.12, -5629.64, -99530.68, -99445.99, -119156.48, -105219.94, 0.06, 0.00, 0.00
174, -5511.81, 4749.81, -5664.27, -5606.73, -99507.15, -99422.48, -119131.28, -105194.97, 0.06, 0.00, 0.00
175, -5507.34, 4744.02, -5660.13, -5602.80, -99503.03, -99418.50, -119127.06, -105191.06, 0.07, 0.00, 0.00
176, -5532.57, 4780.79, -5683.31, -5625.02, -99525.99, -99441.50, -119151.58, -105215.49, 0.06, 0.00, 0.00
177, -5542.76, 4793.89, -5692.83, -5634.18, -99535.51, -99450.84, -119161.44, -105225.02, 0.06, 0.00, 0.00
178, -5521.91, 4761.86, -5674.01, -5616.17, -99516.83, -99432.20, -119141.30, -105204.83, 0.06, 0.00, 0.00
179, -5509.03, 4744.67, -5662.01, -5604.68, -99504.98, -99420.29, -119128.91, -105192.71, 0.06, 0.00, 0.00
180, -5526.65, 4772.75, -5677.79, -5619.72, -99520.65, -99436.00, -119145.92, -105209.79, 0.06, 0.00, 0.00
181, -5542.43, 4794.36, -5692.48, -5633.76, -99535.13, -99450.55, -119161.30, -105224.88, 0.06, 0.00, 0.00
182, -5523.09, 4765.32, -5674.82, -5616.86, -99517.63, -99433.01, -119142.41, -105205.99, 0.06, 0.00, 0.00
183, -5506.51, 4741.77, -5659.55, -5602.38, -99502.63, -99418.03, -119126.34, -105190.23, 0.06, 0.00, 0.00
184, -5523.16, 4767.25, -5674.64, -5616.81, -99517.67, -99433.05, -119142.53, -105206.55, 0.06, 0.00, 0.00
185, -5545.33, 4797.67, -5695.20, -5636.57, -99538.13, -99453.46, -119164.12, -105227.78, 0.06, 0.00, 0.00
186, -5533.20, 4777.86, -5684.45, -5626.31, -99527.45, -99442.82, -119152.41, -105215.96, 0.06, 0.00, 0.00
187, -5509.95, 4745.19, -5662.88, -5605.59, -99506.05, -99421.49, -119129.79, -105193.59, 0.07, 0.00, 0.00
188, -5520.72, 4762.33, -5672.58, -5614.80, -99515.75, -99431.15, -119140.25, -105204.31, 0.07, 0.00, 0.00
189, -5543.66, 4795.54, -5693.68, -5635.01, -99536.67, -99452.05, -119162.53, -105226.33, 0.07, 0.00, 0.00
190, -5535.32, 4782.09, -5686.33, -5627.86, -99529.23, -99444.54, -119154.42, -105217.95, 0.07, 0.00, 0.00
191, -5510.64, 4746.50, -5663.69, -5606.20, -99506.70, -99422.14, -119130.57, -105194.37, 0.07, 0.00, 0.00
192, -5515.78, 4755.58, -5668.27, -5610.62, -99511.33, -99426.75, -119135.66, -105199.63, 0.07, 0.00, 0.00
193, -5541.15, 4792.42, -5691.56, -5632.84, -99534.44, -99449.81, -119160.25, -105223.96, 0.07, 0.00, 0.00
194, -5538.69, 4787.48, -5689.39, -5630.63, -99532.18, -99447.53, -119157.73, -105221.19, 0.07, 0.00, 0.00
195, -5511.29, 4748.27, -5664.11, -5606.35, -99507.13, -99422.55, -119131.04, -105194.73, 0.07, 0.00, 0.00
196, -5510.31, 4748.18, -5663.08, -5605.30, -99506.30, -99421.59, -119130.21, -105194.16, 0.07, 0.00, 0.00
197, -5537.42, 4787.14, -5688.03, -5629.33, -99531.17, -99446.30, -119156.61, -105220.43, 0.07, 0.00, 0.00
198, -5542.47, 4792.79, -5692.83, -5633.91, -99535.87, -99451.00, -119161.41, -105225.04, 0.07, 0.00, 0.00
199, -5518.85, 4757.43, -5671.33, -5613.33, -99514.50, -99429.77, -119138.55, -105202.17, 0.07, 0.00, 0.00
200, -5510.00, 4746.59, -5662.86, -5605.30, -99506.37, -99421.70, -119130.03, -105194.03, 0.07, 0.00, 0.00
201, -5530.85, 4778.94, -5681.70, -5623.27, -99525.07, -99440.41, -119150.17, -105214.22, 0.07, 0.00, 0.00
202, -5541.04, 4792.71, -5691.20, -5632.37, -99534.41, -99449.66, -119160.07, -105223.67, 0.07, 0.00, 0.00
203, -5519.74, 4760.45, -5671.67, -5613.84, -99515.13, -99430.26, -119139.42, -105202.95, 0.07, 0.00, 0.00
204, -5508.83, 4744.36, -5661.61, -5604.30, -99505.29, -99420.51, -119128.80, -105192.76, 0.07, 0.00, 0.00
205, -5529.98, 4775.63, -5681.03, -5623.01, -99524.52, -99439.82, -119149.39, -105213.44, 0.07, 0.00, 0.00
206, -5542.61, 4794.78, -5692.48, -5633.82, -99535.82, -99451.00, -119161.59, -105225.33, 0.07, 0.00, 0.00
207, -5524.05, 4767.00, -5675.51, -5617.64, -99519.04, -99434.30, -119143.55, -105207.13, 0.07, 0.00, 0.00
208, -5509.44, 4744.85, -5662.26, -5605.28, -99506.07, -99421.38, -119129.56, -105193.50, 0.07, 0.00, 0.00
209, -5524.61, 4768.25, -5676.11, -5618.54, -99519.73, -99434.99, -119144.23, -105208.38, 0.07, 0.00, 0.00
210, -5542.49, 4794.85, -5692.30, -5633.87, -99535.69, -99450.95, -119161.48, -105225.23, 0.07, 0.00, 0.00
211, -5532.44, 4777.66, -5683.40, -5625.49, -99526.81, -99442.15, -119151.78, -105215.24, 0.07, 0.00, 0.00
212, -5511.92, 4747.35, -5664.74, -5607.65, -99508.47, -99423.77, -119132.02, -105195.77, 0.07, 0.00, 0.00
213, -5519.92, 4761.23, -5671.82, -5614.29, -99515.48, -99430.88, -119139.78, -105203.84, 0.07, 0.00, 0.00
214, -5540.57, 4792.42, -5690.58, -5632.10, -99534.02, -99449.26, -119159.80, -105223.54, 0.07, 0.00, 0.00
215, -5532.86, 4780.10, -5683.38, -5625.31, -99526.99, -99442.17, -119152.07, -105215.63, 0.07, 0.00, 0.00
216, -5509.30, 4745.48, -5661.83, -5604.72, -99505.60, -99420.87, -119129.18, -105192.98, 0.07, 0.00, 0.00
217, -5514.96, 4754.22, -5666.97, -5609.82, -99510.81, -99426.19, -119134.84, -105198.86, 0.07, 0.00, 0.00
218, -5539.03, 4789.91, -5689.01, -5630.81, -99532.67, -99448.00, -119158.22, -105222.04, 0.07, 0.00, 0.00
219, -5536.84, 4786.16, -5687.00, -5628.82, -99530.55, -99445.86, -119155.96, -105219.49, 0.07, 0.00, 0.00
220, -5510.04, 4747.47, -5662.46, -5605.12, -99506.21, -99421.49, -119129.90, -105193.61, 0.07, 0.00, 0.00
221, -5508.21, 4745.68, -5660.62, -5603.38, -99504.46, -99419.77, -119128.13, -105192.16, 0.07, 0.00, 0.00
222, -5534.83, 4783.97, -5685.03, -5626.81, -99528.90, -99444.09, -119153.95, -105217.91, 0.07, 0.00, 0.00
223, -5541.02, 4791.68, -5690.89, -5632.44, -99534.73, -99449.86, -119159.98, -105223.65, 0.07, 0.00, 0.00
224, -5515.54, 4754.64, -5667.51, -5609.93, -99511.35, -99426.57, -119135.17, -105198.91, 0.07, 0.00, 0.00
225, -5508.34, 4744.60, -5660.96, -5603.67, -99504.87, -99420.11, -119128.29, -105192.40, 0.07, 0.00, 0.00
226, -5531.70, 4779.12, -5682.42, -5624.24, -99526.19, -99441.39, -119151.02, -105215.07, 0.07, 0.00, 0.00
227, -5540.24, 4792.06, -5690.11, -5631.43, -99533.79, -99448.95, -119159.20, -105222.89, 0.06, 0.00, 0.00
228, -5519.47, 4760.65, -5671.17, -5613.24, -99514.97, -99430.15, -119139.02, -105202.66, 0.06, 0.00, 0.00
229, -5504.88, 4740.42, -5657.79, -5600.43, -99501.73, -99416.91, -119124.98, -105188.98, 0.06, 0.00, 0.00
230, -5524.59, 4769.88, -5675.91, -5617.73, -99519.73, -99434.91, -119144.27, -105208.31, 0.06, 0.00, 0.00
231, -5542.58, 4795.01, -5692.48, -5633.76, -99536.18, -99451.38, -119161.77, -105225.51, 0.06, 0.00, 0.00
232, -5525.75, 4769.50, -5677.14, -5619.09, -99521.01, -99436.16, -119145.41, -105209.05, 0.06, 0.00, 0.00
233, -5505.44, 4741.01, -5658.32, -5601.15, -99502.41, -99417.59, -119125.59, -105189.66, 0.06, 0.00, 0.00
234, -5519.00, 4762.26, -5670.57, -5612.84, -99514.66, -99429.85, -119138.73, -105203.04, 0.06, 0.00, 0.00
235, -5540.77, 4793.35, -5690.73, -5632.01, -99534.55, -99449.70, -119159.91, -105223.85, 0.06, 0.00, 0.00
236, -5530.09, 4776.03, -5681.08, -5622.67, -99524.94, -99440.02, -119149.39, -105213.14, 0.06, 0.00, 0.00
237, -5508.30, 4744.02, -5661.16, -5603.74, -99505.29, -99420.45, -119128.38, -105192.31, 0.06, 0.00, 0.00
238, -5515.07, 4755.98, -5667.11, -5609.48, -99511.28, -99426.50, -119135.04, -105199.20, 0.06, 0.00, 0.00
239, -5539.54, 4791.52, -5689.66, -5630.94, -99533.66, -99448.70, -119158.77, -105222.71, 0.06, 0.00, 0.00
240, -5536.21, 4784.57, -5686.98, -5628.46, -99530.91, -99445.97, -119155.72, -105219.31, 0.06, 0.00, 0.00
241, -5512.41, 4749.28, -5665.27, -5607.69, -99509.38, -99424.53, -119132.63, -105196.52, 0.06, 0.00, 0.00
242, -5513.17, 4752.34, -5665.72, -5607.99, -99509.88, -99425.00, -119133.36, -105197.50, 0.06, 0.00, 0.00
243, -5535.68, 4786.56, -5686.13, -5627.41, -99530.10, -99445.14, -119155.24, -105219.09, 0.06, 0.00, 0.00
244, -5536.08, 4786.02, -5686.57, -5627.79, -99530.51, -99445.61, -119155.63, -105219.20, 0.06, 0.00, 0.00
245, -5513.86, 4752.00, -5666.52, -5608.70, -99510.61, -99425.85, -119134.13, -105197.90, 0.06, 0.00, 0.00
246, -5512.25, 4749.77, -5665.12, -5607.52, -99509.38, -99424.55, -119132.72, -105196.89, 0.06, 0.00, 0.00
247, -5534.54, 4783.81, -5685.37, -5626.92, -99529.50, -99444.63, -119154.44, -105218.42, 0.06, 0.00, 0.00
248, -5541.67, 4793.33, -5692.03, -5633.33, -99536.07, -99451.16, -119161.26, -105224.97, 0.06, 0.00, 0.00
249, -5517.77, 4758.10, -5670.10, -5612.34, -99514.41, -99429.52, -119137.99, -105201.77, 0.06, 0.00, 0.00
250, -5505.30, 4742.01, -5658.34, -5601.06, -99502.84, -99417.98, -119125.90, -105190.01, 0.06, 0.00, 0.00
251, -5527.63, 4775.18, -5678.93, -5620.70, -99523.30, -99438.41, -119147.83, -105211.87, 0.06, 0.00, 0.00
252, -5540.75, 4793.31, -5691.09, -5632.26, -99535.38, -99450.26, -119160.52, -105224.23, 0.06, 0.00, 0.00
253, -5522.96, 4765.35, -5675.02, -5616.93, -99519.44, -99434.34, -119143.22, -105206.91, 0.06, 0.00, 0.00
254, -5507.60, 4743.58, -5660.89, -5603.36, -99505.38, -99420.42, -119128.31, -105192.36, 0.06, 0.00, 0.00
255, -5522.13, 4767.43, -5673.77, -5615.58, -99518.16, -99433.32, -119142.41, -105206.51, 0.06, 0.00, 0.00
0, -5540.57, 4793.69, -5690.73, -5631.77, -99535.00, -99449.97, -119160.30, -105224.05, 0.06, 0.00, 0.00
1, -5524.55, 4769.48, -5676.11, -5617.80, -99520.45, -99435.46, -119144.67, -105208.34, 0.06, 0.00, 0.00
2, -5503.83, 4739.91, -5656.94, -5599.47, -99501.58, -99416.66, -119124.47, -105188.49, 0.06, 0.00, 0.00
3, -5517.62, 4760.61, -5669.39, -5611.54, -99514.16, -99429.14, -119137.88, -105202.20, 0.06, 0.00, 0.00
4, -5540.30, 4792.97, -5690.20, -5631.50, -99534.88, -99449.88, -119159.85, -105223.88, 0.06, 0.00, 0.00
5, -5532.55, 4779.38, -5683.33, -5624.95, -99528.05, -99442.98, -119152.25, -105216.03, 0.06, 0.00, 0.00
6, -5507.07, 4743.29, -5659.82, -5602.26, -99504.69, -99419.73, -119127.57, -105191.51, 0.06, 0.00, 0.00
7, -5511.94, 4752.79, -5664.13, -5606.33, -99508.94, -99424.06, -119132.36, -105196.65, 0.06, 0.00, 0.00
8, -5535.66, 4787.97, -5685.88, -5627.14, -99530.41, -99445.50, -119155.47, -105219.54, 0.06, 0.00, 0.00
9, -5531.10, 4780.39, -5681.75, -5623.07, -99526.26, -99441.23, -119150.91, -105214.64, 0.06, 0.00, 0.00
10, -5506.87, 4744.56, -5659.51, -5601.91, -99504.46, -99419.46, -119127.44, -105191.38, 0.06, 0.00, 0.00
11, -5509.28, 4748.47, -5661.72, -5603.98, -99506.81, -99421.72, -119130.01, -105194.10, 0.06, 0.00, 0.00
12, -5534.45, 4785.35, -5684.74, -5626.02, -99529.59, -99444.56, -119154.38, -105218.35, 0.06, 0.00, 0.00
13, -5537.31, 4788.17, -5687.58, -5628.73, -99532.29, -99447.20, -119157.01, -105220.77, 0.06, 0.00, 0.00
14, -5510.02, 4749.10, -5662.41, -5604.57, -99507.34, -99422.30, -119130.46, -105194.44, 0.06, 0.00, 0.00
15, -5503.42, 4741.16, -5656.11, -5598.60, -99501.27, -99416.22, -119124.04, -105188.40, 0.06, 0.00, 0.00
16, -5529.46, 4778.83, -5680.23, -5621.64, -99525.12, -99440.13, -119149.52, -105213.73, 0.06, 0.00, 0.00
17, -5541.47, 4793.73, -5691.45, -5632.55, -99536.31, -99451.31, -119161.21, -105225.02, 0.06, 0.00, 0.00
18, -5516.34, 4757.46, -5668.20, -5610.18, -99513.20, -99428.24, -119136.67, -105200.56, 0.06, 0.00, 0.00
19, -5503.25, 4739.98, -5656.00, -5598.46, -99501.27, -99416.27, -119124.04, -105188.24, 0.06, 0.00, 0.00
20, -5527.97, 4775.14, -5678.91, -5620.57, -99524.02, -99439.09, -119148.18, -105212.43, 0.06, 0.00, 0.00
21, -5541.94, 4794.90, -5691.58, -5632.84, -99536.65, -99451.71, -119161.64, -105225.55, 0.06, 0.00, 0.00
22, -5521.66, 4764.86, -5673.01, -5614.85, -99518.21, -99433.19, -119141.77, -105205.66, 0.06, 0.00, 0.00
23, -5506.60, 4742.62, -5659.26, -5601.73, -99504.66, -99419.53, -119127.22, -105191.40, 0.06, 0.00, 0.00
24, -5525.78, 4770.71, -5677.03, -5618.94, -99522.30, -99437.34, -119146.10, -105210.44, 0.06, 0.00, 0.00
25, -5546.43, 4799.66, -5696.16, -5637.31, -99541.32, -99456.30, -119166.11, -105230.13, 0.06, 0.00, 0.00
26, -5532.55, 4778.18, -5683.62, -5625.22, -99528.85, -99443.73, -119152.70, -105216.50, 0.06, 0.00, 0.00
27, -5508.19, 4744.54, -5660.94, -5603.40, -99506.37, -99421.31, -119129.01, -105193.16, 0.06, 0.00, 0.00
28, -5518.44, 4761.10, -5670.12, -5612.17, -99515.55, -99430.57, -119138.86, -105203.31, 0.06, 0.00, 0.00
29, -5540.68, 4793.69, -5690.58, -5631.66, -99535.78, -99450.82, -119160.54, -105224.59, 0.06, 0.00, 0.00
30, -5533.11, 4781.06, -5683.94, -5625.20, -99529.19, -99444.14, -119153.30, -105217.05, 0.06, 0.00, 0.00
31, -5511.02, 4748.00, -5663.78, -5606.02, -99509.27, -99424.38, -119131.89, -105195.93, 0.06, 0.01, 0.08
32, -5514.85, 4755.53, -5666.93, -5609.08, -99512.53, -99427.62, -119135.60, -105199.84, 0.06, 0.00, 0.00
33, -5537.47, 4789.60, -5687.40, -5628.53, -99532.83, -99447.80, -119157.50, -105221.55, 0.06, 0.00, 0.00
34, -5534.20, 4784.06, -5684.43, -5625.58, -99529.84, -99444.78, -119154.17, -105217.97, 0.06, 0.00, 0.00
35, -5507.40, 4745.50, -5659.82, -5601.91, -99505.45, -99420.35, -119128.11, -105192.13, 0.06, 0.00, 0.00
36, -5505.93, 4744.67, -5658.28, -5600.50, -99503.95, -99418.90, -119126.68, -105190.99, 0.07, 0.00, 0.00
37, -5534.18, 4784.79, -5684.43, -5625.69, -99529.95, -99444.98, -119154.27, -105218.46, 0.07, 0.00, 0.00
38, -5539.05, 4790.43, -5689.06, -5630.16, -99534.55, -99449.52, -119159.07, -105222.89, 0.07, 0.00, 0.00
39, -5511.00, 4750.66, -5663.08, -5605.04, -99508.71, -99423.73, -119131.64, -105195.62, 0.07, 0.00, 0.00
40, -5504.41, 4742.03, -5656.91, -5599.25, -99502.72, -99417.80, -119125.27, -105189.59, 0.07, 0.00, 0.00
41, -5527.74, 4776.72, -5678.15, -5619.70, -99523.93, -99439.02, -119148.00, -105212.32, 0.07, 0.00, 0.00
42, -5539.30, 4792.08, -5689.08, -5630.00, -99534.70, -99449.68, -119159.42, -105223.25, 0.07, 0.00, 0.00
43, -5520.99, 4762.84, -5672.58, -5614.51, -99518.50, -99433.38, -119141.73, -105205.55, 0.07, 0.00, 0.00
44, -5510.02, 4746.64, -5662.64, -5605.12, -99508.66, -99423.73, -119131.15, -105195.35, 0.07, 0.00, 0.00
45, -5529.02, 4775.70, -5679.89, -5621.58, -99525.81, -99440.90, -119149.57, -105213.99, 0.07, 0.00, 0.00
46, -5541.47, 4794.74, -5690.98, -5632.13, -99536.80, -99451.83, -119161.48, -105225.57, 0.07, 0.00, 0.00
47, -5523.94, 4767.94, -5675.04, -5616.81, -99521.01, -99436.07, -119144.45, -105208.45, 0.07, 0.00, 0.00
48, -5505.93, 4742.24, -5658.50, -5601.03, -99504.66, -99419.70, -119127.10, -105191.30, 0.07, 0.00, 0.00
49, -5520.57, 4765.12, -5671.73, -5613.77, -99517.95, -99432.94, -119141.37, -105205.73, 0.07, 0.00, 0.00
50, -5541.76, 4795.21, -5691.29, -5632.46, -99537.32, -99452.23, -119161.99, -105225.95, 0.07, 0.00, 0.00
51, -5526.96, 4773.44, -5677.72, -5619.41, -99523.84, -99438.77, -119147.65, -105211.36, 0.07, 0.00, 0.00
52, -5505.46, 4742.01, -5657.99, -5600.52, -99504.40, -99419.35, -119126.73, -105190.88, 0.07, 0.00, 0.00
53, -5514.62, 4756.85, -5666.23, -5608.48, -99512.65, -99427.51, -119135.69, -105200.07, 0.07, 0.00, 0.00
54, -5538.52, 4791.34, -5688.16, -5629.53, -99534.26, -99449.28, -119158.93, -105222.89, 0.07, 0.00, 0.00
55, -5532.03, 4780.50, -5682.28, -5623.90, -99528.49, -99443.51, -119152.66, -105216.38, 0.07, 0.00, 0.00
56, -5507.69, 4745.12, -5660.11, -5602.67, -99506.52, -99421.54, -119129.07, -105193.14, 0.07, 0.00, 0.00
57, -5512.36, 4752.72, -5664.31, -5606.73, -99510.92, -99425.92, -119133.74, -105197.97, 0.07, 0.00, 0.00
58, -5536.26, 4788.28, -5686.19, -5627.59, -99532.52, -99447.45, -119156.95, -105220.97, 0.07, 0.00, 0.00
59, -5536.59, 4787.14, -5686.71, -5627.99, -99532.98, -99447.84, -119157.23, -105220.92, 0.07, 0.00, 0.00
60, -5510.71, 4749.30, -5662.88, -5605.17, -99509.43, -99424.47, -119132.16, -105196.07, 0.07, 0.00, 0.00
61, -5505.57, 4744.22, -5657.90, -5600.25, -99504.64, -99419.57, -119127.22, -105191.46, 0.07, 0.00, 0.00
62, -5532.03, 4782.45, -5682.13, -5623.65, -99528.83, -99443.76, -119153.03, -105217.16, 0.07, 0.00, 0.00
63, -5537.44, 4789.51, -5687.13, -5628.39, -99533.86, -99448.70, -119158.29, -105222.09, 0.07, 0.00, 0.00
64, -5514.91, 4755.65, -5666.82, -5609.04, -99513.63, -99428.58, -119136.58, -105200.41, 0.07, 0.00, 0.00
65, -5506.78, 4744.58, -5659.48, -5602.11, -99506.38, -99421.43, -119128.80, -105193.09, 0.07, 0.00, 0.00
66, -5526.76, 4775.61, -5677.50, -5619.36, -99524.29, -99439.27, -119148.16, -105212.45, 0.07, 0.00, 0.00
67, -5538.27, 4791.61, -5688.05, -5629.35, -99534.80, -99449.66, -119159.38, -105223.31, 0.07, 0.00, 0.00
68, -5517.21, 4760.05, -5668.96, -5610.91, -99515.82, -99430.81, -119139.02, -105202.86, 0.07, 0.00, 0.00
69, -5502.46, 4739.42, -5655.35, -5598.02, -99502.45, -99417.47, -119124.83, -105188.94, 0.07, 0.00, 0.00
70, -5523.05, 4769.59, -5674.42, -5616.26, -99521.43, -99436.41, -119145.03, -105209.23, 0.07, 0.00, 0.00
71, -5540.59, 4794.36, -5690.51, -5631.61, -99537.39, -99452.30, -119161.98, -105225.93, 0.07, 0.00, 0.00
72, -5523.56, 4768.72, -5675.00, -5616.73, -99521.95, -99436.78, -119145.37, -105209.21, 0.07, 0.00, 0.00
73, -5504.50, 4741.43, -5657.52, -5600.16, -99504.84, -99419.69, -119127.10, -105191.27, 0.07, 0.00, 0.00
74, -5518.62, 4763.13, -5670.32, -5612.55, -99517.61, -99432.52, -119140.85, -105205.16, 0.07, 0.00, 0.00
75, -5537.73, 4791.68, -5687.67, -5628.97, -99534.77, -99449.61, -119159.29, -105223.34, 0.07, 0.00, 0.00
76, -5524.55, 4772.10, -5675.58, -5617.24, -99522.66, -99437.56, -119146.33, -105210.26, 0.07, 0.00, 0.00
77, -5501.57, 4738.82, -5654.50, -5597.01, -99501.83, -99416.76, -119124.09, -105188.29, 0.07, 0.00, 0.00
78, -5509.82, 4752.07, -5661.83, -5604.07, -99509.38, -99424.20, -119132.16, -105196.60, 0.07, 0.00, 0.00
79, -5532.19, 4785.51, -5682.28, -5623.50, -99529.66, -99444.34, -119153.95, -105218.11, 0.07, 0.00, 0.00
80, -5529.24, 4778.98, -5679.78, -5621.13, -99527.22, -99441.81, -119151.09, -105214.87, 0.07, 0.00, 0.00
81, -5504.00, 4742.24, -5656.58, -5598.93, -99504.27, -99419.02, -119126.66, -105190.59, 0.07, 0.00, 0.00
82, -5505.61, 4746.15, -5657.83, -5600.27, -99505.73, -99420.53, -119128.34, -105192.67, 0.07, 0.00, 0.00
83, -5530.29, 4782.56, -5680.43, -5621.78, -99528.11, -99442.95, -119152.34, -105216.50, 0.07, 0.00, 0.00
84, -5531.74, 4783.16, -5681.88, -5623.12, -99529.52, -99444.18, -119153.63, -105217.44, 0.07, 0.00, 0.00
85, -5507.63, 4747.24, -5659.93, -5602.11, -99507.70, -99422.55, -119130.26, -105194.16, 0.06, 0.00, 0.00
86, -5503.27, 4742.24, -5655.80, -5598.31, -99503.86, -99418.81, -119126.34, -105190.57, 0.07, 0.00, 0.00
87, -5526.49, 4777.13, -5676.92, -5618.51, -99524.85, -99439.73, -119148.90, -105213.05, 0.06, 0.00, 0.00
88, -5533.42, 4786.42, -5683.47, -5624.64, -99531.29, -99445.97, -119155.63, -105219.41, 0.06, 0.00, 0.00
89, -5512.48, 4754.17, -5664.45, -5606.49, -99512.53, -99427.20, -119135.30, -105199.17, 0.06, 0.00, 0.00
90, -5501.84, 4739.82, -5654.57, -5596.99, -99502.85, -99417.59, -119125.00, -105189.23, 0.06, 0.00, 0.00
91, -5522.02, 4770.67, -5672.74, -5614.45, -99521.07, -99435.80, -119144.56, -105208.74, 0.06, 0.00, 0.00
92, -5534.65, 4788.39, -5684.32, -5625.40, -99532.45, -99447.18, -119156.70, -105220.56, 0.06, 0.00, 0.00
93, -5516.05, 4759.65, -5667.46, -5609.21, -99515.69, -99430.46, -119138.73, -105202.48, 0.06, 0.00, 0.00
94, -5501.93, 4739.04, -5654.50, -5596.92, -99503.10, -99417.85, -119125.25, -105189.34, 0.06, 0.00, 0.00
95, -5518.31, 4764.68, -5669.32, -5611.16, -99517.92, -99432.67, -119141.23, -105205.45, 0.06, 0.00, 0.00
96, -5535.01, 4789.46, -5684.74, -5625.78, -99532.98, -99447.71, -119157.46, -105221.28, 0.06, 0.00, 0.00
97, -5521.15, 4767.45, -5672.25, -5613.82, -99520.60, -99435.30, -119144.07, -105207.69, 0.06, 0.00, 0.00
98, -5502.69, 4740.00, -5655.44, -5597.77, -99504.09, -99418.81, -119126.16, -105190.14, 0.06, 0.00, 0.00
99, -5515.25, 4759.45, -5666.79, -5608.66, -99515.57, -99430.16, -119138.39, -105202.59, 0.06, 0.00, 0.00
100, -5536.28, 4790.40, -5685.97, -5626.96, -99534.51, -99449.19, -119158.77, -105222.71, 0.06, 0.00, 0.00
101, -5524.48, 4772.95, -5675.09, -5616.37, -99523.59, -99438.23, -119147.16, -105210.91, 0.06, 0.00, 0.00
102, -5502.04, 4739.71, -5654.59, -5596.79, -99503.39, -99418.01, -119125.43, -105189.48, 0.06, 0.00, 0.00
103, -5510.91, 4752.99, -5662.75, -5604.83, -99511.77, -99426.48, -119134.34, -105198.48, 0.06, 0.00, 0.00
104, -5534.34, 4787.77, -5684.09, -5625.29, -99533.08, -99447.65, -119157.19, -105221.10, 0.06, 0.00, 0.00
105, -5529.33, 4779.99, -5679.60, -5620.82, -99528.56, -99443.00, -119152.25, -105215.96, 0.06, 0.00, 0.00
106, -5504.72, 4743.80, -5657.20, -5599.45, -99506.41, -99420.87, -119128.52, -105192.47, 0.06, 0.00, 0.00
107, -5504.65, 4745.05, -5656.94, -5599.22, -99506.16, -99420.82, -119128.63, -105192.76, 0.06, 0.00, 0.00
108, -5530.69, 4782.80, -5680.79, -5622.00, -99529.88, -99444.56, -119153.88, -105217.86, 0.06, 0.00, 0.00
109, -5534.72, 4786.94, -5684.76, -5625.67, -99533.72, -99448.25, -119157.86, -105221.48, 0.06, 0.00, 0.00
110, -5511.34, 4751.71, -5663.51, -5605.30, -99512.65, -99427.15, -119135.11, -105198.86, 0.06, 0.00, 0.00
111, -5503.94, 4742.70, -5656.49, -5598.58, -99505.88, -99420.47, -119127.98, -105192.16, 0.06, 0.00, 0.00
112, -5528.59, 4779.03, -5679.09, -5620.35, -99528.34, -99443.00, -119152.12, -105216.16, 0.06, 0.00, 0.00
113, -5537.62, 4791.39, -5687.56, -5628.37, -99536.77, -99451.27, -119160.88, -105224.55, 0.06, 0.00, 0.00
114, -5515.54, 4758.13, -5667.33, -5608.97, -99516.78, -99431.20, -119139.35, -105203.11, 0.06, 0.00, 0.00
115, -5504.81, 4742.84, -5657.49, -5599.63, -99507.15, -99421.70, -119129.12, -105193.20, 0.06, 0.00, 0.00
116, -5523.21, 4771.47, -5674.03, -5615.29, -99523.58, -99438.08, -119146.88, -105211.00, 0.06, 0.00, 0.00
117, -5536.12, 4790.34, -5685.79, -5626.47, -99535.16, -99449.66, -119159.29, -105223.16, 0.06, 0.00, 0.00
118, -5518.60, 4763.13, -5669.74, -5611.27, -99519.44, -99433.88, -119142.30, -105206.06, 0.06, 0.00, 0.00
119, -5503.04, 4740.45, -5655.57, -5597.84, -99505.52, -99420.00, -119127.46, -105191.42, 0.06, 0.00, 0.00
120, -5514.78, 4760.88, -5665.85, -5607.54, -99515.71, -99430.19, -119138.80, -105202.86, 0.06, 0.00, 0.00
121, -5531.34, 4786.02, -5680.83, -5621.71, -99530.52, -99444.96, -119154.75, -105218.53, 0.06, 0.00, 0.00
122, -5519.05, 4766.26, -5669.74, -5611.05, -99519.55, -99433.99, -119142.86, -105206.46, 0.06, 0.00, 0.00
123, -5498.35, 4736.00, -5650.68, -5592.99, -99500.87, -99415.26, -119122.74, -105186.73, 0.06, 0.00, 0.00
124, -5510.35, 4754.13, -5661.63, -5603.56, -99511.84, -99426.32, -119134.50, -105198.59, 0.06, 0.00, 0.00
125, -5532.41, 4786.65, -5681.97, -5622.96, -99531.89, -99446.35, -119155.96, -105219.85, 0.06, 0.00, 0.00
126, -5527.12, 4776.52, -5677.48, -5618.69, -99527.42, -99441.81, -119150.91, -105214.51, 0.06, 0.00, 0.00
127, -5502.53, 4740.98, -5655.01, -5597.19, -99505.20, -99419.53, -119127.13, -105191.02, 0.06, 0.00, 0.00
128, -5507.92, 4749.92, -5659.89, -5601.95, -99510.12, -99424.49, -119132.49, -105196.60, 0.06, 0.00, 0.00
129, -5532.66, 4786.20, -5682.55, -5623.63, -99532.59, -99446.88, -119156.45, -105220.37, 0.06, 0.00, 0.00
130, -5529.46, 4781.04, -5679.67, -5620.73, -99529.72, -99443.94, -119153.26, -105216.85, 0.06, 0.00, 0.00
131, -5502.53, 4742.26, -5654.79, -5596.81, -99505.09, -99419.44, -119127.06, -105190.81, 0.06, 0.00, 0.00
132, -5499.13, 4739.40, -5651.33, -5593.52, -99501.78, -99416.22, -119123.80, -105187.87, 0.06, 0.00, 0.00
133, -5525.64, 4777.71, -5675.58, -5616.95, -99525.99, -99440.29, -119149.57, -105213.55, 0.06, 0.00, 0.00
134, -5533.31, 4786.29, -5683.02, -5624.10, -99533.30, -99447.53, -119157.05, -105220.72, 0.06, 0.00, 0.00
135, -5510.55, 4752.03, -5662.50, -5604.45, -99512.96, -99427.17, -119135.11, -105198.80, 0.06, 0.00, 0.00
136, -5502.42, 4741.63, -5654.88, -5597.21, -99505.47, -99419.82, -119127.28, -105191.38, 0.06, 0.00, 0.00
137, -5524.32, 4774.76, -5674.75, -5616.19, -99525.19, -99439.58, -119148.48, -105212.54, 0.06, 0.00, 0.00
138, -5534.92, 4789.26, -5684.47, -5625.42, -99534.84, -99448.98, -119158.73, -105222.42, 0.06, 0.00, 0.00
139, -5513.82, 4757.43, -5665.25, -5607.07, -99515.77, -99429.97, -119138.21, -105201.97, 0.06, 0.00, 0.00
140, -5500.18, 4738.37, -5652.55, -5594.98, -99503.39, -99417.67, -119125.02, -105189.14, 0.06, 0.00, 0.00
141, -5518.60, 4766.76, -5669.32, -5610.89, -99520.11, -99434.34, -119143.04, -105207.11, 0.06, 0.00, 0.00
142, -5537.82, 4792.68, -5687.29, -5628.26, -99537.91, -99452.14, -119161.80, -105225.55, 0.06, 0.00, 0.00
143, -5518.67, 4764.52, -5669.72, -5611.36, -99520.42, -99434.68, -119143.16, -105206.77, 0.06, 0.00, 0.00
144, -5499.20, 4737.32, -5651.79, -5594.22, -99502.74, -99416.96, -119124.31, -105188.24, 0.06, 0.00, 0.00
145, -5515.23, 4761.32, -5666.44, -5608.25, -99517.32, -99431.55, -119139.87, -105204.00, 0.06, 0.00, 0.00
146, -5534.54, 4789.71, -5684.07, -5625.11, -99534.77, -99448.95, -119158.60, -105222.40, 0.06, 0.00, 0.00
147, -5521.95, 4770.31, -5672.65, -5614.06, -99523.40, -99437.52, -119146.33, -105210.13, 0.06, 0.00, 0.00
148, -5501.14, 4739.55, -5653.63, -5596.07, -99504.76, -99418.92, -119126.28, -105190.32, 0.06, 0.00, 0.00
149, -5510.15, 4754.04, -5661.74, -5603.94, -99512.96, -99427.13, -119135.13, -105199.30, 0.06, 0.00, 0.00
150, -5533.26, 4787.90, -5682.84, -5624.08, -99533.79, -99448.02, -119157.52, -105221.37, 0.06, 0.00, 0.00
151, -5526.67, 4777.19, -5676.90, -5618.33, -99527.87, -99442.04, -119151.05, -105214.66, 0.06, 0.00, 0.00
152, -5503.92, 4743.17, -5656.20, -5598.71, -99507.48, -99421.59, -119129.09, -105192.94, 0.06, 0.00, 0.00
153, -5508.16, 4750.06, -5660.00, -5602.42, -99511.33, -99425.48, -119133.25, -105197.45, 0.06, 0.00, 0.00
154, -5530.13, 4783.81, -5679.94, -5621.44, -99530.99, -99445.19, -119154.48, -105218.51, 0.06, 0.00, 0.00
155, -5530.98, 4783.50, -5681.05, -5622.36, -99532.02, -99446.23, -119155.40, -105219.18, 0.06, 0.00, 0.00
156, -5510.15, 4750.75, -5662.30, -5604.59, -99513.56, -99427.71, -119135.27, -105199.11, 0.06, 0.00, 0.00
157, -5505.70, 4746.04, -5658.10, -5600.43, -99509.36, -99423.57, -119130.99, -105195.24, 0.06, 0.00, 0.00
158, -5527.32, 4779.56, -5677.79, -5619.16, -99528.88, -99443.04, -119152.02, -105216.25, 0.06, 0.00, 0.00
159, -5533.55, 4787.59, -5683.74, -5624.79, -99534.70, -99448.83, -119158.13, -105221.99, 0.06, 0.00, 0.00
160, -5510.29, 4752.90, -5662.46, -5604.43, -99513.67, -99427.75, -119135.48, -105199.38, 0.06, 0.00, 0.00
161, -5500.67, 4740.22, -5653.45, -5595.92, -99504.84, -99419.04, -119126.30, -105190.44, 0.06, 0.00, 0.00
162, -5521.53, 4772.03, -5672.25, -5613.91, -99523.51, -99437.81, -119146.55, -105210.57, 0.06, 0.00, 0.00
163, -5531.70, 4786.83, -5681.43, -5622.63, -99532.67, -99446.84, -119156.27, -105219.98, 0.06, 0.00, 0.00
164, -5510.89, 4755.62, -5662.50, -5604.45, -99513.78, -99428.02, -119136.09, -105199.73, 0.06, 0.00, 0.00
165, -5495.96, 4734.68, -5648.71, -5591.42, -99500.27, -99414.45, -119121.59, -105185.59, 0.06, 0.00, 0.00
166, -5514.87, 4763.11, -5666.08, -5608.03, -99517.38, -99431.64, -119140.05, -105204.12, 0.06, 0.00, 0.00
167, -5532.21, 4787.88, -5682.01, -5623.21, -99533.21, -99447.34, -119156.79, -105220.54, 0.06, 0.00, 0.00
168, -5517.95, 4765.35, -5669.23, -5611.09, -99520.55, -99434.66, -119143.00, -105206.66, 0.06, 0.00, 0.00
169, -5500.74, 4739.67, -5653.58, -5596.32, -99505.09, -99419.33, -119126.44, -105190.48, 0.06, 0.00, 0.00
170, -5513.59, 4759.78, -5665.16, -5607.27, -99516.60, -99430.77, -119138.95, -105203.11, 0.06, 0.00, 0.00
171, -5535.95, 4791.63, -5685.77, -5626.96, -99536.96, -99451.00, -119160.54, -105224.45, 0.06, 0.00, 0.00
172, -5524.52, 4773.93, -5675.47, -5616.90, -99526.59, -99440.70, -119149.48, -105213.08, 0.06, 0.00, 0.00
173, -5500.32, 4739.22, -5653.11, -5595.49, -99504.51, -99418.59, -119125.90, -105189.74, 0.06, 0.00, 0.00
174, -5508.34, 4752.07, -5660.27, -5602.51, -99511.88, -99425.92, -119133.72, -105197.90, 0.06, 0.00, 0.00
175, -5532.97, 4787.88, -5682.91, -5624.17, -99534.35, -99448.32, -119157.64, -105221.59, 0.06, 0.00, 0.00
176, -5528.86, 4780.46, -5679.33, -5620.79, -99530.73, -99444.67, -119153.59, -105217.30, 0.06, 0.00, 0.00
177, -5504.32, 4744.36, -5656.82, -5599.36, -99508.42, -99422.39, -119129.74, -105193.68, 0.06, 0.00, 0.00
178, -5504.61, 4746.66, -5656.87, -5599.31, -99508.55, -99422.61, -119130.13, -105194.23, 0.06, 0.00, 0.00
179, -5531.19, 4785.13, -5681.46, -5622.83, -99532.94, -99446.87, -119156.12, -105220.05, 0.06, 0.00, 0.00
180, -5533.60, 4786.94, -5683.85, -5625.02, -99535.16, -99449.10, -119158.30, -105221.99, 0.06, 0.00, 0.00
181, -5509.53, 4750.95, -5661.92, -5604.12, -99513.34, -99427.46, -119134.84, -105198.77, 0.06, 0.00, 0.00
182, -5503.27, 4743.78, -5656.00, -5598.42, -99507.57, -99421.70, -119128.89, -105193.07, 0.06, 0.00, 0.00
183, -5526.49, 4778.56, -5677.10, -5618.71, -99528.49, -99442.59, -119151.45, -105215.58, 0.06, 0.00, 0.00
184, -5536.10, 4790.78, -5686.13, -5627.43, -99537.39, -99451.38, -119160.79, -105224.52, 0.06, 0.00, 0.00
185, -5513.53, 4756.97, -5665.59, -5607.76, -99517.05, -99431.09, -119138.86, -105202.59, 0.06, 0.00, 0.00
186, -5502.46, 4741.94, -5655.24, -5597.93, -99506.92, -99420.98, -119128.18, -105192.20, 0.06, 0.00, 0.00
187, -5522.80, 4772.95, -5673.74, -5615.56, -99525.32, -99439.42, -119148.00, -105212.01, 0.06, 0.00, 0.00
188, -5538.23, 4793.71, -5688.09, -5629.33, -99539.52, -99453.52, -119162.94, -105226.66, 0.06, 0.00, 0.00
189, -5519.23, 4764.56, -5670.57, -5612.66, -99522.16, -99436.13, -119144.12, -105207.91, 0.06, 0.00, 0.00
190, -5503.60, 4742.28, -5656.27, -5598.93, -99507.98, -99422.05, -119129.01, -105193.16, 0.06, 0.00, 0.00
191, -5517.71, 4765.35, -5668.80, -5610.82, -99520.45, -99434.57, -119142.66, -105206.91, 0.06, 0.00, 0.00
192, -5534.00, 4789.71, -5683.62, -5624.95, -99535.06, -99449.14, -119158.48, -105222.27, 0.06, 0.00, 0.00
193, -5519.61, 4767.49, -5670.66, -5612.43, -99522.19, -99436.18, -119144.47, -105208.14, 0.06, 0.00, 0.00
194, -5498.89, 4737.70, -5651.50, -5594.13, -99503.28, -99417.41, -119124.22, -105188.34, 0.06, 0.01, 0.08
195, -5510.35, 4755.96, -5661.85, -5604.10, -99513.56, -99427.75, -119135.45, -105199.76, 0.06, 0.00, 0.00
196, -5533.44, 4789.00, -5683.15, -5624.50, -99534.69, -99448.74, -119157.91, -105221.98, 0.06, 0.00, 0.00
197, -5525.22, 4775.25, -5675.80, -5617.57, -99527.40, -99441.39, -119149.93, -105213.73, 0.06, 0.00, 0.00
198, -5501.03, 4740.34, -5653.63, -5596.34, -99505.38, -99419.35, -119126.41, -105190.44, 0.06, 0.00, 0.00
199, -5507.80, 4751.27, -5659.80, -5602.26, -99511.57, -99425.63, -119133.05, -105197.45, 0.06, 0.00, 0.00
200, -5533.26, 4788.24, -5683.33, -5624.79, -99534.91, -99448.90, -119157.91, -105222.02, 0.07, 0.00, 0.00
201, -5532.24, 4784.50, -5682.66, -5624.28, -99534.23, -99448.14, -119156.95, -105220.72, 0.07, 0.00, 0.00
202, -5509.19, 4749.81, -5661.63, -5604.36, -99513.45, -99427.40, -119134.57, -105198.50, 0.07, 0.00, 0.00
203, -5509.17, 4751.00, -5661.54, -5604.39, -99513.36, -99427.41, -119134.68, -105198.98, 0.07, 0.00, 0.00
204, -5529.80, 4783.27, -5679.98, -5621.78, -99531.55, -99445.66, -119154.38, -105218.60, 0.07, 0.00, 0.00
205, -5531.25, 4785.02, -5681.30, -5623.01, -99532.78, -99446.82, -119155.70, -105219.47, 0.07, 0.00, 0.00
206, -5508.63, 4750.62, -5660.87, -5603.45, -99512.45, -99426.52, -119133.77, -105197.66, 0.07, 0.00, 0.00
207, -5502.26, 4742.57, -5654.88, -5597.82, -99506.70, -99420.71, -119127.69, -105191.98, 0.07, 0.00, 0.00
208, -5524.10, 4775.92, -5674.68, -5616.88, -99526.28, -99440.27, -119148.88, -105213.08, 0.07, 0.00, 0.00
209, -5532.97, 4788.21, -5682.98, -5624.73, -99534.37, -99448.38, -119157.46, -105221.37, 0.07, 0.00, 0.00
210, -5513.10, 4757.37, -5665.09, -5607.61, -99516.65, -99430.66, -119138.23, -105202.15, 0.07, 0.00, 0.00
211, -5502.02, 4741.54, -5654.90, -5597.97, -99506.54, -99420.65, -119127.48, -105191.77, 0.07, 0.00, 0.00
212, -5523.52, 4773.19, -5674.53, -5616.93, -99526.15, -99440.27, -119148.34, -105212.66, 0.07, 0.00, 0.00
213, -5536.28, 4792.12, -5686.17, -5628.04, -99537.55, -99451.60, -119160.70, -105224.61, 0.07, 0.00, 0.00
214, -5518.58, 4764.79, -5670.06, -5612.52, -99521.56, -99435.51, -119143.45, -105207.29, 0.07, 0.00, 0.00
215, -5501.03, 4739.93, -5653.96, -5597.23, -99505.72, -99419.70, -119126.44, -105190.70, 0.07, 0.00, 0.00
216, -5516.16, 4763.74, -5667.71, -5610.38, -99519.35, -99433.41, -119141.19, -105205.55, 0.07, 0.00, 0.00
217, -5536.75, 4792.84, -5686.60, -5628.66, -99538.04, -99452.02, -119160.99, -105225.02, 0.07, 0.00, 0.00
218, -5522.76, 4771.49, -5673.81, -5616.39, -99525.32, -99439.31, -119147.34, -105211.22, 0.07, 0.00, 0.00
219, -5501.37, 4740.42, -5654.12, -5597.46, -99505.88, -99419.80, -119126.41, -105190.55, 0.07, 0.00, 0.00
220, -5512.07, 4757.05, -5663.91, -5606.82, -99515.57, -99429.50, -119136.98, -105201.25, 0.07, 0.00, 0.00
221, -5534.65, 4790.16, -5684.58, -5626.67, -99536.05, -99449.91, -119158.91, -105223.00, 0.07, 0.00, 0.00
222, -5526.49, 4777.22, -5677.14, -5619.50, -99528.60, -99442.48, -119150.82, -105214.71, 0.07, 0.00, 0.00
223, -5503.27, 4742.88, -5655.86, -5599.25, -99507.57, -99421.59, -119128.31, -105192.42, 0.07, 0.00, 0.00
224, -5508.16, 4751.22, -5660.22, -5603.60, -99511.98, -99425.97, -119133.09, -105197.52, 0.07, 0.00, 0.00
225, -5534.29, 4788.93, -5684.32, -5626.74, -99535.89, -99449.84, -119158.53, -105222.66, 0.07, 0.00, 0.00
226, -5533.87, 4786.65, -5684.09, -5626.52, -99535.65, -99449.48, -119158.09, -105221.98, 0.07, 0.00, 0.00
227, -5510.64, 4751.51, -5662.95, -5606.42, -99514.70, -99428.60, -119135.55, -105199.64, 0.07, 0.00, 0.00
228, -5508.79, 4750.04, -5661.14, -5604.74, -99512.91, -99426.97, -119133.81, -105198.21, 0.07, 0.00, 0.00
229, -5532.24, 4785.13, -5682.46, -5625.08, -99534.08, -99447.91, -119156.45, -105220.77, 0.07, 0.00, 0.00
230, -5536.59, 4790.56, -5686.44, -5628.97, -99537.92, -99451.76, -119160.52, -105224.50, 0.07, 0.00, 0.00
231, -5511.07, 4753.55, -5663.13, -5606.51, -99514.68, -99428.58, -119135.82, -105199.76, 0.07, 0.00, 0.00
232, -5503.54, 4743.67, -5656.27, -5599.96, -99507.93, -99421.88, -119128.73, -105192.98, 0.07, 0.00, 0.00
233, -5527.97, 4779.29, -5678.73, -5621.62, -99530.23, -99444.16, -119152.38, -105216.74, 0.07, 0.00, 0.00
234, -5538.14, 4793.58, -5688.14, -5630.56, -99539.52, -99453.32, -119162.22, -105226.29, 0.07, 0.00, 0.00
235, -5516.43, 4761.17, -5668.31, -5611.47, -99519.82, -99433.61, -119141.14, -105205.16, 0.07, 0.00, 0.00
236, -5503.78, 4742.95, -5656.62, -5600.21, -99508.33, -99422.21, -119128.80, -105193.20, 0.07, 0.00, 0.00
237, -5524.39, 4773.39, -5675.60, -5618.31, -99527.20, -99441.03, -119148.85, -105213.39, 0.07, 0.00, 0.00
238, -5538.67, 4794.47, -5688.61, -5630.67, -99539.98, -99453.73, -119162.63, -105226.73, 0.07, 0.00, 0.00
239, -5522.49, 4769.33, -5674.01, -5616.70, -99525.43, -99439.24, -119146.93, -105210.87, 0.07, 0.00, 0.00
240, -5504.39, 4743.35, -5657.49, -5600.92, -99509.12, -99422.95, -119129.48, -105193.79, 0.07, 0.00, 0.00
241, -5518.94, 4765.77, -5670.62, -5613.62, -99522.19, -99436.02, -119143.60, -105208.12, 0.07, 0.00, 0.00
242, -5538.00, 4794.07, -5688.03, -5630.14, -99539.45, -99453.16, -119161.99, -105226.24, 0.07, 0.00, 0.00
243, -5524.26, 4773.62, -5675.47, -5617.93, -99526.81, -99440.60, -119148.59, -105212.52, 0.07, 0.00, 0.00
244, -5503.98, 4743.22, -5657.05, -5600.34, -99508.55, -99422.50, -119128.96, -105193.16, 0.07, 0.00, 0.00
245, -5516.25, 4760.88, -5668.51, -5611.54, -99520.02, -99433.95, -119141.05, -105205.55, 0.07, 0.00, 0.00
246, -5539.97, 4795.41, -5690.24, -5632.33, -99541.68, -99455.47, -119164.16, -105228.39, 0.07, 0.00, 0.00
247, -5531.54, 4782.87, -5682.51, -5624.73, -99533.81, -99447.65, -119155.83, -105219.88, 0.07, 0.00, 0.00
248, -5508.07, 4748.05, -5661.03, -5604.23, -99512.53, -99426.44, -119132.96, -105197.27, 0.06, 0.00, 0.00
249, -5510.98, 4753.63, -5663.55, -5606.55, -99515.06, -99428.91, -119135.84, -105200.36, 0.07, 0.00, 0.00
250, -5534.74, 4788.95, -5685.37, -5627.21, -99536.41, -99450.33, -119158.73, -105223.16, 0.06, 0.00, 0.00
251, -5532.73, 4785.82, -5683.42, -5625.20, -99534.41, -99448.25, -119156.56, -105220.68, 0.06, 0.00, 0.00
252, -5506.98, 4748.27, -5659.77, -5602.51, -99510.99, -99424.89, -119131.64, -105195.82, 0.06, 0.00, 0.00
253, -5506.82, 4747.67, -5659.77, -5602.67, -99511.17, -99425.00, -119131.64, -105196.13, 0.07, 0.00, 0.00
254, -5530.38, 4782.98, -5681.21, -5623.25, -99532.31, -99446.33, -119154.51, -105218.95, 0.06, 0.00, 0.00
255, -5536.77, 4791.23, -5687.04, -5628.88, -99538.15, -99452.16, -119160.56, -105224.68, 0.06, 0.00, 0.00
0, -5514.94, 4757.99, -5667.26, -5610.00, -99518.57, -99432.49, -119139.47, -105203.55, 0.06, 0.00, 0.00
1, -5504.25, 4744.05, -5657.27, -5600.41, -99508.71, -99422.59, -119129.12, -105193.54, 0.06, 0.00, 0.00
2, -5526.09, 4776.88, -5677.32, -5619.54, -99528.54, -99442.46, -119150.30, -105214.87, 0.06, 0.00, 0.00
3, -5542.09, 4797.69, -5692.52, -5634.25, -99543.52, -99457.41, -119166.06, -105230.27, 0.06, 0.00, 0.00
4, -5521.69, 4766.84, -5673.81, -5616.30, -99525.01, -99438.80, -119146.10, -105210.26, 0.06, 0.00, 0.00
5, -5506.93, 4745.97, -5660.27, -5603.29, -99511.66, -99425.48, -119131.75, -105196.34, 0.06, 0.00, 0.00
6, -5525.13, 4773.57, -5676.83, -5619.21, -99528.05, -99441.92, -119149.48, -105214.10, 0.06, 0.00, 0.00
7, -5541.87, 4797.69, -5692.18, -5633.78, -99543.09, -99456.85, -119165.69, -105229.84, 0.06, 0.00, 0.00
8, -5528.52, 4775.94, -5680.34, -5622.51, -99531.35, -99445.10, -119152.79, -105216.85, 0.06, 0.00, 0.00
9, -5509.64, 4748.52, -5663.02, -5605.93, -99514.19, -99428.16, -119134.33, -105198.86, 0.06, 0.00, 0.00
10, -5521.13, 4767.20, -5673.23, -5615.63, -99524.40, -99438.35, -119145.43, -105210.15, 0.06, 0.00, 0.00
11, -5543.32, 4799.05, -5693.64, -5635.19, -99544.74, -99458.55, -119166.96, -105231.38, 0.06, 0.00, 0.00
12, -5533.80, 4783.32, -5685.17, -5626.98, -99536.20, -99449.93, -119157.66, -105221.86, 0.06, 0.00, 0.00
13, -5509.66, 4748.58, -5662.90, -5605.53, -99514.05, -99427.89, -119134.26, -105198.68, 0.06, 0.00, 0.00
14, -5516.46, 4760.18, -5668.98, -5611.38, -99520.13, -99434.05, -119140.90, -105205.50, 0.06, 0.00, 0.00
15, -5540.46, 4795.32, -5691.04, -5632.51, -99541.97, -99455.76, -119164.16, -105228.57, 0.06, 0.00, 0.00
16, -5537.06, 4788.59, -5687.98, -5629.71, -99539.02, -99452.66, -119160.79, -105224.95, 0.06, 0.00, 0.00
17, -5512.59, 4752.58, -5665.59, -5608.19, -99516.76, -99430.46, -119137.03, -105201.30, 0.06, 0.00, 0.00
18, -5512.61, 4754.46, -5665.45, -5607.99, -99516.49, -99430.44, -119137.01, -105201.59, 0.06, 0.00, 0.00
19, -5538.05, 4791.63, -5688.72, -5630.31, -99539.67, -99453.57, -119161.70, -105226.16, 0.06, 0.00, 0.00
20, -5539.41, 4792.37, -5689.90, -5631.30, -99540.83, -99454.59, -119162.87, -105226.94, 0.06, 0.00, 0.00
21, -5515.27, 4756.36, -5667.89, -5610.20, -99519.02, -99432.67, -119139.38, -105203.63, 0.06, 0.00, 0.00
22, -5512.21, 4752.18, -5665.18, -5607.69, -99516.35, -99430.15, -119136.54, -105201.16, 0.06, 0.00, 0.00
23, -5536.08, 4787.65, -5686.95, -5628.59, -99538.04, -99451.76, -119159.70, -105224.16, 0.06, 0.00, 0.00
24, -5544.06, 4798.43, -5694.31, -5635.59, -99545.41, -99459.02, -119167.38, -105231.56, 0.06, 0.00, 0.00
25, -5518.78, 4761.88, -5670.95, -5613.22, -99522.16, -99435.91, -119142.77, -105207.00, 0.06, 0.00, 0.00
26, -5507.34, 4746.24, -5660.24, -5603.00, -99511.57, -99425.41, -119131.59, -105196.18, 0.06, 0.00, 0.00
27, -5529.15, 4778.60, -5680.38, -5622.22, -99531.47, -99445.30, -119152.92, -105217.46, 0.06, 0.00, 0.00
28, -5543.03, 4798.05, -5693.26, -5634.47, -99544.09, -99457.88, -119166.33, -105230.53, 0.06, 0.00, 0.00
29, -5524.48, 4769.50, -5676.29, -5618.36, -99527.45, -99441.19, -119148.25, -105212.48, 0.06, 0.00, 0.00
30, -5507.89, 4746.15, -5661.18, -5603.85, -99512.40, -99426.23, -119132.31, -105196.85, 0.06, 0.00, 0.00
31, -5521.71, 4768.95, -5673.57, -5615.54, -99524.54, -99438.41, -119145.73, -105210.24, 0.06, 0.00, 0.00
32, -5538.56, 4793.96, -5688.85, -5630.16, -99539.65, -99453.46, -119161.91, -105226.20, 0.06, 0.00, 0.00
33, -5525.95, 4773.51, -5677.43, -5619.32, -99528.42, -99442.15, -119149.66, -105213.79, 0.06, 0.00, 0.00
34, -5507.69, 4746.08, -5660.80, -5603.56, -99511.93, -99425.80, -119131.98, -105196.41, 0.06, 0.00, 0.00
35, -5518.69, 4763.76, -5670.86, -5613.10, -99521.90, -99435.73, -119142.77, -105207.40, 0.06, 0.00, 0.00
36, -5539.03, 4794.07, -5689.39, -5630.65, -99540.32, -99454.06, -119162.45, -105226.91, 0.06, 0.00, 0.00
37, -5529.20, 4778.78, -5680.29, -5621.84, -99531.27, -99445.01, -119152.74, -105216.97, 0.06, 0.00, 0.00
38, -5504.94, 4743.67, -5658.03, -5600.54, -99509.20, -99422.92, -119129.14, -105193.63, 0.06, 0.00, 0.00
39, -5512.34, 4755.15, -5664.92, -5607.20, -99516.20, -99429.90, -119136.60, -105201.25, 0.06, 0.00, 0.00
40, -5537.18, 4791.43, -5687.76, -5629.06, -99538.80, -99452.45, -119160.84, -105225.21, 0.06, 0.00, 0.00
41, -5533.71, 4785.58, -5684.81, -5626.14, -99535.66, -99449.34, -119157.39, -105221.62, 0.06, 0.00, 0.00
42, -5510.76, 4750.93, -5663.91, -5606.29, -99514.97, -99428.76, -119135.15, -105199.53, 0.06, 0.00, 0.00
43, -5510.62, 4751.87, -5663.62, -5606.06, -99514.84, -99428.65, -119135.15, -105199.78, 0.06, 0.00, 0.00
44, -5533.96, 4786.94, -5684.88, -5626.36, -99535.87, -99449.66, -119157.73, -105222.27, 0.06, 0.00, 0.00
45, -5535.21, 4788.70, -5686.08, -5627.32, -99537.01, -99450.77, -119158.89, -105223.11, 0.06, 0.00, 0.00
46, -5510.98, 4752.72, -5663.91, -5606.22, -99515.04, -99428.76, -119135.45, -105199.66, 0.06, 0.00, 0.00
47, -5503.71, 4743.55, -5657.03, -5599.67, -99508.31, -99422.01, -119128.38, -105192.94, 0.06, 0.00, 0.00
48, -5528.52, 4779.90, -5679.89, -5621.51, -99530.99, -99444.70, -119152.56, -105217.08, 0.06, 0.00, 0.00
49, -5539.77, 4794.47, -5690.37, -5631.50, -99541.32, -99455.00, -119163.38, -105227.54, 0.06, 0.00, 0.00
50, -5516.08, 4759.78, -5668.47, -5610.56, -99519.62, -99433.38, -119140.25, -105204.52, 0.06, 0.00, 0.00
51, -5503.69, 4742.64, -5657.03, -5599.65, -99508.33, -99422.21, -119128.31, -105192.88, 0.06, 0.00, 0.00
52, -5522.51, 4771.45, -5674.01, -5615.90, -99525.32, -99439.04, -119146.55, -105211.11, 0.06, 0.00, 0.00
53, -5538.00, 4793.20, -5688.27, -5629.58, -99539.52, -99453.05, -119161.62, -105225.80, 0.06, 0.00, 0.00
54, -5519.52, 4765.28, -5671.44, -5613.31, -99522.66, -99436.31, -119143.66, -105207.73, 0.06, 0.00, 0.00
55, -5504.03, 4742.41, -5657.38, -5599.92, -99508.78, -99422.52, -119128.80, -105193.12, 0.06, 0.00, 0.00
56, -5521.39, 4768.21, -5673.36, -5615.34, -99524.78, -99438.46, -119145.77, -105210.24, 0.06, 0.00, 0.00
57, -5539.19, 4794.61, -5689.46, -5630.65, -99540.74, -99454.33, -119162.89, -105227.00, 0.06, 0.00, 0.00
58, -5526.83, 4774.98, -5678.33, -5619.97, -99529.68, -99443.29, -119150.98, -105214.87, 0.06, 0.00, 0.00
59, -5505.59, 4744.11, -5658.93, -5601.37, -99510.48, -99424.11, -119130.37, -105194.64, 0.06, 0.00, 0.00
60, -5514.00, 4758.35, -5666.21, -5608.37, -99517.83, -99431.51, -119138.39, -105202.95, 0.06, 0.00, 0.00
61, -5535.86, 4790.67, -5686.19, -5627.34, -99537.59, -99451.20, -119159.67, -105223.83, 0.06, 0.00, 0.00
62, -5528.95, 4779.14, -5680.05, -5621.37, -99531.47, -99445.03, -119152.95, -105216.85, 0.06, 0.00, 0.00
63, -5503.71, 4742.82, -5656.80, -5599.16, -99508.33, -99422.08, -119128.42, -105192.63, 0.06, 0.00, 0.00
64, -5509.97, 4752.47, -5662.64, -5604.88, -99514.27, -99427.93, -119134.62, -105199.13, 0.06, 0.00, 0.00
65, -5534.78, 4788.84, -5685.43, -5626.63, -99536.77, -99450.48, -119158.66, -105223.05, 0.06, 0.00, 0.00
66, -5533.11, 4785.35, -5683.89, -5625.13, -99535.24, -99448.95, -119156.95, -105221.02, 0.06, 0.00, 0.00
67, -5506.93, 4747.33, -5659.71, -5602.04, -99511.30, -99424.98, -119131.55, -105195.66, 0.06, 0.00, 0.00
68, -5504.77, 4745.52, -5657.58, -5600.16, -99509.31, -99423.08, -119129.48, -105194.03, 0.06, 0.00, 0.00
69, -5527.18, 4779.70, -5677.92, -5619.50, -99529.50, -99443.20, -119151.24, -105215.52, 0.06, 0.00, 0.00
70, -5532.41, 4786.09, -5682.89, -5624.06, -99534.33, -99447.87, -119156.25, -105220.14, 0.06, 0.00, 0.00
71, -5509.68, 4751.76, -5662.23, -5604.25, -99513.78, -99427.44, -119134.19, -105198.26, 0.06, 0.00, 0.00
72, -5500.14, 4739.71, -5653.34, -5595.67, -99504.98, -99418.70, -119124.96, -105189.45, 0.06, 0.00, 0.00
73, -5523.21, 4773.91, -5674.39, -5615.90, -99525.85, -99439.64, -119147.35, -105211.80, 0.06, 0.00, 0.00
74, -5535.36, 4790.29, -5685.61, -5626.69, -99537.10, -99450.75, -119159.13, -105223.25, 0.06, 0.00, 0.00
75, -5513.97, 4758.24, -5666.08, -5607.92, -99517.74, -99431.35, -119138.34, -105202.46, 0.06, 0.00, 0.00
76, -5500.76, 4739.49, -5653.96, -5596.36, -99505.78, -99419.46, -119125.59, -105190.03, 0.06, 0.00, 0.00
77, -5520.37, 4768.92, -5671.93, -5613.66, -99523.73, -99437.41, -119144.78, -105209.30, 0.06, 0.00, 0.00
78, -5539.01, 4794.40, -5689.30, -5630.31, -99540.92, -99454.51, -119162.94, -105227.18, 0.06, 0.00, 0.00
79, -5523.56, 4770.13, -5675.47, -5617.04, -99527.06, -99440.65, -119147.96, -105212.09, 0.06, 0.00, 0.00
80, -5503.13, 4741.70, -5656.40, -5598.87, -99508.31, -99421.95, -119128.02, -105192.42, 0.06, 0.00, 0.00
81, -5516.79, 4763.16, -5668.74, -5610.65, -99520.60, -99434.21, -119141.34, -105205.88, 0.06, 0.00, 0.00
82, -5539.81, 4795.16, -5689.90, -5631.05, -99541.70, -99455.29, -119163.60, -105227.85, 0.06, 0.00, 0.00
83, -5528.84, 4777.55, -5680.07, -5621.60, -99531.91, -99445.48, -119152.98, -105217.05, 0.06, 0.00, 0.00
84, -5506.31, 4744.90, -5659.46, -5601.84, -99511.35, -99425.05, -119131.11, -105195.58, 0.06, 0.00, 0.00
85, -5513.97, 4757.84, -5666.17, -5608.37, -99518.08, -99431.77, -119138.51, -105203.16, 0.06, 0.00, 0.00
86, -5539.86, 4794.40, -5689.97, -5631.23, -99541.73, -99455.36, -119163.56, -105228.03, 0.06, 0.00, 0.00
87, -5532.30, 4782.92, -5683.04, -5624.46, -99534.88, -99448.48, -119156.05, -105220.30, 0.06, 0.00, 0.00
88, -5506.26, 4745.74, -5659.15, -5601.50, -99511.20, -99424.84, -119130.86, -105195.24, 0.06, 0.00, 0.00
89, -5508.50, 4750.51, -5661.12, -5603.40, -99513.12, -99426.73, -119133.14, -105197.77, 0.06, 0.00, 0.00
90, -5533.11, 4786.80, -5683.69, -5624.91, -99535.49, -99449.03, -119157.13, -105221.48, 0.06, 0.00, 0.00
91, -5534.94, 4787.59, -5685.52, -5626.74, -99537.34, -99450.89, -119158.84, -105222.89, 0.06, 0.00, 0.00
92, -5511.36, 4752.07, -5664.07, -5606.29, -99516.06, -99429.63, -119135.94, -105200.20, 0.06, 0.00, 0.00
93, -5508.14, 4748.36, -5661.00, -5603.34, -99513.07, -99426.70, -119132.89, -105197.52, 0.06, 0.00, 0.00
94, -5533.71, 4785.64, -5684.47, -5625.87, -99536.38, -99450.10, -119157.91, -105222.33, 0.06, 0.00, 0.00
95, -5538.85, 4792.79, -5689.21, -5630.27, -99541.05, -99454.62, -119162.80, -105226.84, 0.06, 0.00, 0.00
96, -5515.34, 4757.97, -5667.82, -5609.73, -99519.71, -99433.25, -119139.87, -105204.05, 0.06, 0.00, 0.00
97, -5503.56, 4742.82, -5656.65, -5599.04, -99508.76, -99422.37, -119128.31, -105192.88, 0.06, 0.00, 0.00
98, -5526.71, 4776.81, -5677.77, -5619.32, -99529.90, -99443.55, -119150.93, -105215.49, 0.06, 0.00, 0.00
99, -5541.49, 4796.44, -5691.56, -5632.59, -99543.55, -99457.15, -119165.28, -105229.53, 0.06, 0.00, 0.00
100, -5519.45, 4764.03, -5671.22, -5613.10, -99523.42, -99437.01, -119143.76, -105207.96, 0.06, 0.01, 0.08
101, -5501.59, 4740.13, -5654.68, -5597.23, -99507.05, -99420.76, -119126.55, -105191.17, 0.06, 0.00, 0.00
102, -5521.33, 4769.17, -5672.90, -5614.69, -99525.14, -99438.82, -119145.84, -105210.53, 0.06, 0.00, 0.00
103, -5539.34, 4794.56, -5689.37, -5630.47, -99541.45, -99455.00, -119163.12, -105227.47, 0.06, 0.00, 0.00
104, -5520.61, 4767.72, -5672.25, -5613.89, -99524.31, -99437.81, -119144.94, -105209.08, 0.07, 0.00, 0.00
105, -5503.31, 4741.83, -5656.62, -5599.13, -99508.87, -99422.48, -119128.38, -105192.80, 0.07, 0.00, 0.00
106, -5518.73, 4764.52, -5670.77, -5612.99, -99522.99, -99436.72, -119143.42, -105208.12, 0.07, 0.00, 0.00
107, -5542.16, 4797.44, -5692.36, -5633.87, -99544.41, -99458.13, -119166.13, -105230.51, 0.07, 0.00, 0.00
108, -5533.17, 4782.36, -5684.29, -5626.14, -99536.36, -99450.04, -119157.39, -105221.50, 0.07, 0.00, 0.00
109, -5506.67, 4745.43, -5659.84, -5602.55, -99512.04, -99425.72, -119131.51, -105196.00, 0.07, 0.00, 0.00
110, -5513.19, 4756.54, -5665.70, -5608.25, -99517.92, -99431.55, -119137.86, -105202.59, 0.07, 0.00, 0.00
111, -5536.04, 4790.52, -5686.44, -5628.10, -99538.39, -99452.05, -119159.98, -105224.52, 0.07, 0.00, 0.00
112, -5530.63, 4782.18, -5681.57, -5623.45, -99533.55, -99447.09, -119154.82, -105218.98, 0.07, 0.00, 0.00
113, -5503.69, 4743.73, -5656.91, -5599.65, -99509.07, -99422.63, -119128.70, -105193.03, 0.07, 0.00, 0.00
114, -5507.54, 4749.19, -5660.40, -5603.20, -99512.69, -99426.37, -119132.52, -105197.16, 0.07, 0.00, 0.00
115, -5536.77, 4790.22, -5687.49, -5629.33, -99539.52, -99453.23, -119160.97, -105225.55, 0.07, 0.00, 0.00
116, -5539.39, 4792.55, -5690.08, -5631.72, -99542.06, -99455.58, -119163.47, -105227.70, 0.07, 0.00, 0.00
117, -5509.91, 4751.20, -5662.70, -5605.35, -99514.91, -99428.40, -119134.66, -105199.04, 0.07, 0.00, 0.00
118, -5502.91, 4743.00, -5656.02, -5598.91, -99508.31, -99421.95, -119127.80, -105192.58, 0.07, 0.00, 0.00
119, -5527.74, 4779.36, -5678.77, -5620.84, -99531.02, -99444.61, -119152.14, -105216.72, 0.07, 0.00, 0.00
120, -5534.27, 4788.77, -5684.65, -5626.25, -99536.74, -99450.30, -119158.30, -105222.48, 0.07, 0.00, 0.00
121, -5512.66, 4755.94, -5664.98, -5607.40, -99517.25, -99430.77, -119137.25, -105201.52, 0.07, 0.00, 0.00
122, -5502.57, 4741.72, -5655.89, -5598.75, -99508.31, -99421.80, -119127.64, -105192.27, 0.07, 0.00, 0.00
123, -5524.73, 4774.31, -5676.18, -5618.18, -99528.41, -99441.92, -119149.13, -105213.79, 0.07, 0.00, 0.00
124, -5535.59, 4790.65, -5685.86, -5627.19, -99537.84, -99451.40, -119159.42, -105223.70, 0.07, 0.00, 0.00
125, -5515.81, 4761.06, -5667.62, -5609.86, -99519.93, -99433.37, -119140.12, -105204.34, 0.07, 0.00, 0.00
126, -5500.47, 4738.82, -5653.63, -5596.50, -99506.07, -99419.66, -119125.32, -105189.90, 0.07, 0.00, 0.00
127, -5517.44, 4764.63, -5669.16, -5611.43, -99521.48, -99435.11, -119141.86, -105206.59, 0.07, 0.00, 0.00
128, -5539.75, 4795.21, -5689.99, -5631.43, -99542.09, -99455.56, -119163.59, -105227.98, 0.07, 0.00, 0.00
129, -5525.69, 4773.39, -5677.14, -5619.14, -99529.38, -99442.84, -119149.88, -105214.17, 0.07, 0.00, 0.00
130, -5503.47, 4741.99, -5656.69, -5599.49, -99509.12, -99422.61, -119128.31, -105192.94, 0.07, 0.00, 0.00
131, -5512.61, 4757.61, -5664.83, -5607.25, -99517.16, -99430.66, -119137.19, -105201.97, 0.07, 0.00, 0.00
132, -5536.55, 4791.63, -5686.86, -5628.42, -99539.11, -99452.48, -119160.45, -105224.99, 0.07, 0.00, 0.00
133, -5528.70, 4778.51, -5679.85, -5621.58, -99532.07, -99445.43, -119152.72, -105217.13, 0.07, 0.00, 0.00
134, -5503.69, 4742.57, -5656.76, -5599.38, -99509.20, -99422.57, -119128.31, -105192.98, 0.07, 0.00, 0.00
135, -5509.97, 4752.74, -5662.41, -5604.83, -99514.79, -99428.36, -119134.55, -105199.40, 0.07, 0.00, 0.00
136, -5533.53, 4787.94, -5683.96, -5625.51, -99536.25, -99449.70, -119157.50, -105222.11, 0.07, 0.00, 0.00
137, -5531.88, 4783.92, -5682.64, -5624.30, -99534.95, -99448.30, -119155.96, -105220.21, 0.07, 0.00, 0.00
138, -5508.01, 4748.29, -5660.74, -5603.47, -99513.27, -99426.70, -119132.70, -105197.21, 0.07, 0.00, 0.00
139, -5506.20, 4747.38, -5658.97, -5601.66, -99511.48, -99424.98, -119130.99, -105195.73, 0.07, 0.00, 0.00
140, -5530.89, 4783.70, -5681.48, -5623.30, -99533.88, -99447.31, -119154.93, -105219.54, 0.07, 0.00, 0.00
141, -5536.50, 4790.00, -5686.93, -5628.48, -99539.34, -99452.74, -119160.48, -105224.88, 0.07, 0.00, 0.00
142, -5514.56, 4756.34, -5667.02, -5609.42, -99519.66, -99433.01, -119139.17, -105203.53, 0.07, 0.00, 0.00
143, -5508.83, 4748.54, -5661.72, -5604.45, -99514.45, -99427.87, -119133.66, -105198.28, 0.07, 0.00, 0.00
144, -5531.30, 4782.47, -5682.35, -5624.12, -99534.70, -99448.23, -119155.47, -105220.19, 0.07, 0.00, 0.00
145, -5542.88, 4797.73, -5693.26, -5634.52, -99545.48, -99458.98, -119166.73, -105231.09, 0.07, 0.00, 0.00
146, -5520.81, 4764.79, -5673.12, -5615.23, -99525.52, -99438.93, -119145.30, -105209.63, 0.07, 0.00, 0.00
147, -5505.64, 4744.67, -5659.04, -5601.62, -99511.51, -99424.94, -119130.52, -105195.27, 0.07, 0.00, 0.00
148, -5524.39, 4773.46, -5675.98, -5617.84, -99528.45, -99441.81, -119148.77, -105213.48, 0.06, 0.00, 0.00
149, -5539.75, 4795.07, -5690.02, -5631.28, -99542.24, -99455.63, -119163.49, -105227.92, 0.06, 0.00, 0.00
150, -5521.86, 4767.81, -5673.70, -5615.58, -99526.03, -99439.38, -119145.95, -105210.44, 0.07, 0.00, 0.00
151, -5502.95, 4741.27, -5656.20, -5598.82, -99508.71, -99422.05, -119127.62, -105192.34, 0.07, 0.00, 0.00
152, -5517.44, 4764.21, -5669.34, -5611.45, -99521.81, -99435.13, -119141.73, -105206.57, 0.06, 0.00, 0.00
153, -5538.94, 4794.52, -5689.17, -5630.43, -99541.41, -99454.77, -119162.53, -105227.00, 0.06, 0.00, 0.00
154, -5526.89, 4775.25, -5678.28, -5620.01, -99530.57, -99443.96, -119150.82, -105215.16, 0.06, 0.00, 0.00
155, -5501.75, 4740.38, -5654.88, -5597.52, -99507.46, -99420.82, -119126.28, -105190.93, 0.06, 0.00, 0.00
156, -5511.76, 4756.14, -5663.84, -5606.31, -99516.47, -99429.79, -119136.00, -105200.91, 0.06, 0.00, 0.00
157, -5536.39, 4791.36, -5686.64, -5628.19, -99538.95, -99452.27, -119159.98, -105224.68, 0.06, 0.00, 0.00
158, -5532.97, 4783.38, -5683.89, -5625.62, -99536.25, -99449.52, -119156.74, -105221.10, 0.06, 0.00, 0.00
159, -5510.29, 4749.54, -5663.24, -5605.86, -99515.75, -99429.14, -119134.77, -105199.33, 0.06, 0.00, 0.00
160, -5512.19, 4754.71, -5664.74, -5607.27, -99517.20, -99430.63, -119136.56, -105201.34, 0.06, 0.00, 0.00
161, -5536.57, 4790.78, -5687.09, -5628.64, -99539.42, -99452.72, -119160.32, -105224.95, 0.06, 0.00, 0.00
162, -5536.21, 4788.84, -5686.86, -5628.30, -99539.18, -99452.38, -119159.88, -105224.27, 0.06, 0.00, 0.00
163, -5511.18, 4751.94, -5663.95, -5606.42, -99516.49, -99429.79, -119135.64, -105200.02, 0.06, 0.00, 0.00
164, -5508.14, 4748.83, -5661.05, -5603.58, -99513.70, -99426.93, -119132.60, -105197.41, 0.06, 0.00, 0.00
165, -5531.21, 4783.70, -5682.08, -5623.68, -99534.46, -99447.76, -119154.95, -105219.78, 0.06, 0.00, 0.00
166, -5535.99, 4789.91, -5686.48, -5627.88, -99538.69, -99451.94, -119159.54, -105223.94, 0.06, 0.00, 0.00
167, -5514.35, 4756.76, -5666.86, -5609.17, -99519.33, -99432.52, -119138.66, -105203.06, 0.06, 0.00, 0.00
168, -5505.10, 4744.74, -5658.21, -5601.01, -99510.79, -99424.06, -119129.59, -105194.37, 0.06, 0.00, 0.00
169, -5522.65, 4773.51, -5673.83, -5615.81, -99526.30, -99439.53, -119146.57, -105211.27, 0.06, 0.00, 0.00
170, -5531.88, 4787.23, -5682.28, -5623.72, -99534.57, -99447.84, -119155.55, -105219.91, 0.06, 0.00, 0.00
171, -5513.37, 4758.08, -5665.63, -5607.87, -99518.01, -99431.27, -119137.56, -105201.99, 0.06, 0.00, 0.00
172, -5501.79, 4740.72, -5655.10, -5597.88, -99507.62, -99420.91, -119126.28, -105191.17, 0.06, 0.00, 0.00
173, -5521.98, 4770.58, -5673.54, -5615.67, -99526.08, -99439.38, -119145.99, -105210.87, 0.06, 0.00, 0.00
174, -5537.26, 4792.95, -5687.49, -5628.93, -99539.89, -99453.05, -119160.72, -105225.28, 0.06, 0.00, 0.00
175, -5520.68, 4767.72, -5672.47, -5614.53, -99524.96, -99438.10, -119144.65, -105209.08, 0.06, 0.00, 0.00
176, -5499.29, 4738.15, -5652.51, -5595.42, -99505.25, -99418.41, -119123.75, -105188.67, 0.06, 0.00, 0.00
177, -5513.30, 4759.80, -5665.32, -5607.69, -99517.88, -99431.09, -119137.41, -105202.41, 0.06, 0.00, 0.00
178, -5537.73, 4793.58, -5688.09, -5629.49, -99540.41, -99453.44, -119161.19, -105225.91, 0.06, 0.00, 0.00
179, -5527.03, 4776.41, -5678.55, -5620.28, -99530.77, -99443.89, -119150.77, -105215.20, 0.06, 0.00, 0.00
180, -5505.39, 4744.58, -5658.93, -5601.46, -99511.21, -99424.42, -119129.85, -105194.52, 0.06, 0.00, 0.00
181, -5514.02, 4758.37, -5666.55, -5608.97, -99519.04, -99432.27, -119138.23, -105203.22, 0.06, 0.00, 0.00
182, -5536.79, 4792.06, -5687.31, -5628.82, -99539.60, -99452.79, -119160.25, -105224.99, 0.06, 0.00, 0.00
183, -5531.30, 4782.76, -5682.39, -5624.08, -99534.66, -99447.76, -119154.84, -105219.36, 0.06, 0.00, 0.00
184, -5505.95, 4746.12, -5659.19, -5601.82, -99511.53, -99424.78, -119130.30, -105194.99, 0.06, 0.00, 0.00
185, -5507.85, 4750.42, -5660.78, -5603.38, -99513.23, -99426.48, -119132.18, -105197.16, 0.06, 0.00, 0.00
186, -5531.19, 4785.49, -5682.04, -5623.70, -99534.33, -99447.49, -119154.77, -105219.56, 0.06, 0.00, 0.00
187, -5531.34, 4784.86, -5682.26, -5623.81, -99534.48, -99447.69, -119154.87, -105219.34, 0.06, 0.00, 0.00
188, -5506.58, 4748.14, -5659.62, -5602.04, -99512.11, -99425.27, -119130.91, -105195.46, 0.06, 0.00, 0.00
189, -5501.37, 4742.15, -5654.57, -5597.19, -99507.23, -99420.38, -119125.79, -105190.68, 0.06, 0.00, 0.00
190, -5524.66, 4777.15, -5675.93, -5617.53, -99528.27, -99441.34, -119148.38, -105213.16, 0.06, 0.00, 0.00
191, -5534.72, 4789.60, -5685.64, -5626.92, -99537.73, -99450.87, -119158.29, -105222.71, 0.06, 0.00, 0.00
192, -5514.13, 4757.70, -5666.97, -5609.19, -99519.26, -99432.40, -119138.28, -105202.77, 0.06, 0.00, 0.00
193, -5504.09, 4744.09, -5657.63, -5600.39, -99510.09, -99423.28, -119128.58, -105193.50, 0.06, 0.00, 0.00
194, -5526.51, 4777.31, -5678.19, -5620.10, -99530.51, -99443.55, -119150.35, -105215.31, 0.06, 0.00, 0.00
195, -5538.76, 4794.47, -5689.37, -5630.67, -99541.45, -99454.48, -119161.99, -105226.63, 0.06, 0.00, 0.00
196, -5517.89, 4763.40, -5670.32, -5612.30, -99522.44, -99435.60, -119141.74, -105206.23, 0.06, 0.00, 0.00
197, -5502.06, 4741.21, -5655.71, -5598.28, -99508.11, -99421.31, -119126.39, -105191.30, 0.06, 0.00, 0.00
198, -5519.90, 4768.16, -5671.96, -5613.77, -99524.24, -99437.34, -119143.65, -105208.67, 0.06, 0.00, 0.00
199, -5537.38, 4793.47, -5688.03, -5629.11, -99540.12, -99453.23, -119160.63, -105225.35, 0.06, 0.00, 0.00
200, -5522.85, 4770.80, -5674.82, -5616.59, -99527.04, -99440.13, -119146.46, -105211.06, 0.06, 0.00, 0.00
201, -5503.60, 4742.68, -5657.18, -5599.72, -99509.63, -99422.75, -119127.77, -105192.65, 0.06, 0.00, 0.00
202, -5515.83, 4761.99, -5668.25, -5610.35, -99520.67, -99433.77, -119139.64, -105204.77, 0.06, 0.00, 0.00
203, -5538.18, 4794.09, -5688.68, -5630.00, -99540.92, -99453.95, -119161.33, -105226.11, 0.06, 0.00, 0.00
204, -5526.42, 4776.48, -5677.81, -5619.54, -99530.08, -99443.11, -119149.70, -105214.28, 0.06, 0.00, 0.00
205, -5503.58, 4743.02, -5656.91, -5599.51, -99509.38, -99422.50, -119127.57, -105192.45, 0.06, 0.00, 0.00
206, -5512.16, 4756.07, -5664.96, -5607.16, -99517.41, -99430.48, -119136.00, -105201.25, 0.06, 0.00, 0.00
207, -5537.11, 4792.17, -5687.78, -5629.06, -99539.94, -99453.03, -119160.14, -105225.17, 0.06, 0.00, 0.00
208, -5533.20, 4785.33, -5684.18, -5625.62, -99536.38, -99449.44, -119156.16, -105220.95, 0.06, 0.00, 0.00
209, -5509.17, 4749.63, -5662.14, -5604.61, -99514.68, -99427.73, -119132.76, -105197.88, 0.06, 0.00, 0.00
210, -5508.32, 4750.19, -5661.12, -5603.63, -99513.63, -99426.79, -119131.95, -105197.30, 0.06, 0.00, 0.00
211, -5533.42, 4787.07, -5684.21, -5625.71, -99536.49, -99449.68, -119156.38, -105221.62, 0.06, 0.00, 0.00
212, -5536.48, 4790.07, -5687.09, -5628.48, -99539.38, -99452.43, -119159.25, -105224.12, 0.06, 0.00, 0.00
213, -5511.58, 4753.39, -5664.31, -5606.73, -99516.65, -99429.63, -119135.02, -105199.95, 0.06, 0.00, 0.00
214, -5507.51, 4747.80, -5660.62, -5603.18, -99513.05, -99426.08, -119131.09, -105196.34, 0.06, 0.00, 0.00
215, -5529.91, 4781.64, -5680.85, -5622.60, -99533.12, -99446.30, -119152.83, -105218.02, 0.06, 0.00, 0.00
216, -5539.95, 4794.85, -5690.31, -5631.57, -99542.41, -99455.56, -119162.64, -105227.36, 0.06, 0.00, 0.00
217, -5516.57, 4760.30, -5668.78, -5610.98, -99521.16, -99434.21, -119139.78, -105204.56, 0.06, 0.00, 0.00
218, -5502.15, 4741.54, -5655.30, -5598.04, -99507.77, -99420.94, -119125.79, -105190.91, 0.06, 0.00, 0.00
219, -5520.21, 4770.09, -5671.69, -5613.60, -99523.98, -99437.19, -119143.34, -105208.63, 0.06, 0.00, 0.00
220, -5536.91, 4792.53, -5687.22, -5628.48, -99539.34, -99452.52, -119159.42, -105224.34, 0.06, 0.00, 0.00
221, -5518.40, 4764.25, -5670.35, -5612.34, -99522.62, -99435.80, -119141.41, -105206.26, 0.06, 0.00, 0.00
222, -5503.51, 4742.24, -5656.73, -5599.45, -99509.27, -99422.43, -119126.95, -105192.24, 0.06, 0.00, 0.00
223, -5519.11, 4766.60, -5670.95, -5613.01, -99523.30, -99436.52, -119142.20, -105207.51, 0.06, 0.00, 0.00
224, -5535.79, 4791.72, -5686.04, -5627.30, -99538.17, -99451.29, -119158.27, -105223.18, 0.06, 0.00, 0.00
225, -5521.64, 4770.02, -5673.19, -5615.00, -99525.38, -99438.46, -119144.45, -105209.26, 0.06, 0.00, 0.00
226, -5498.89, 4737.99, -5652.24, -5594.98, -99504.62, -99417.78, -119122.45, -105187.53, 0.06, 0.00, 0.00
227, -5509.59, 4755.02, -5661.74, -5604.32, -99514.19, -99427.35, -119132.70, -105198.08, 0.06, 0.00, 0.00
228, -5531.68, 4787.34, -5682.01, -5623.68, -99534.26, -99447.31, -119154.11, -105219.23, 0.06, 0.00, 0.00
229, -5523.61, 4774.09, -5674.64, -5616.61, -99526.97, -99439.94, -119146.15, -105211.02, 0.06, 0.00, 0.00
230, -5502.19, 4741.83, -5655.35, -5598.13, -99507.84, -99420.82, -119125.61, -105190.75, 0.06, 0.00, 0.00
231, -5508.65, 4751.96, -5661.34, -5604.01, -99513.78, -99426.86, -119132.02, -105197.50, 0.06, 0.00, 0.00
232, -5534.16, 4789.13, -5684.79, -5626.47, -99537.14, -99450.06, -119156.77, -105221.99, 0.06, 0.00, 0.00
233, -5532.48, 4785.28, -5683.49, -5625.13, -99535.76, -99448.67, -119155.11, -105219.98, 0.06, 0.00, 0.00
234, -5505.61, 4746.57, -5658.59, -5601.19, -99511.04, -99424.09, -119128.85, -105193.92, 0.06, 0.00, 0.00
235, -5503.83, 4745.45, -5656.71, -5599.45, -99509.23, -99422.30, -119127.02, -105192.47, 0.06, 0.00, 0.00
236, -5526.13, 4779.52, -5676.96, -5618.74, -99529.30, -99442.33, -119148.70, -105214.06, 0.06, 0.00, 0.00
237, -5531.25, 4785.49, -5681.90, -5623.45, -99534.20, -99447.02, -119153.77, -105218.64, 0.06, 0.00, 0.00
238, -5507.56, 4750.17, -5660.33, -5602.80, -99512.76, -99425.79, -119130.97, -105195.76, 0.06, 0.00, 0.00
239, -5501.10, 4741.45, -5654.28, -5597.15, -99506.86, -99419.98, -119124.65, -105189.92, 0.06, 0.00, 0.00
240, -5524.70, 4776.39, -5675.82, -5617.91, -99528.42, -99441.30, -119147.47, -105212.88, 0.06, 0.00, 0.00
241, -5536.88, 4792.30, -5687.11, -5628.79, -99539.53, -99452.32, -119159.05, -105224.12, 0.06, 0.00, 0.00
242, -5515.72, 4760.34, -5667.82, -5610.33, -99520.31, -99433.23, -119138.48, -105203.49, 0.06, 0.00, 0.00
243, -5499.80, 4739.22, -5652.91, -5596.00, -99505.60, -99418.57, -119123.04, -105188.40, 0.06, 0.00, 0.00
244, -5517.17, 4766.46, -5668.56, -5610.78, -99521.09, -99434.01, -119139.80, -105205.21, 0.06, 0.00, 0.00
245, -5532.64, 4788.59, -5682.80, -5624.28, -99535.20, -99447.96, -119154.75, -105219.83, 0.06, 0.00, 0.00
246, -5515.45, 4762.13, -5667.11, -5609.26, -99519.57, -99432.34, -119138.02, -105202.98, 0.06, 0.00, 0.00
247, -5499.09, 4738.01, -5652.20, -5595.13, -99504.95, -99417.80, -119122.19, -105187.57, 0.06, 0.00, 0.00
248, -5512.34, 4759.45, -5664.04, -5606.55, -99516.76, -99429.63, -119135.02, -105200.54, 0.06, 0.00, 0.00
249, -5533.15, 4789.26, -5683.20, -5624.82, -99535.65, -99448.45, -119155.23, -105220.43, 0.06, 0.00, 0.00
250, -5521.48, 4770.78, -5672.60, -5614.74, -99525.14, -99437.97, -119143.76, -105208.90, 0.06, 0.00, 0.00
251, -5496.00, 4735.28, -5648.89, -5591.80, -99501.65, -99414.50, -119118.86, -105184.22, 0.06, 0.00, 0.00
252, -5504.56, 4749.28, -5656.40, -5599.04, -99509.23, -99422.14, -119127.24, -105192.70, 0.06, 0.00, 0.00
253, -5530.69, 4786.25, -5680.76, -5622.29, -99533.25, -99446.15, -119152.70, -105218.02, 0.06, 0.00, 0.00
254, -5524.93, 4776.12, -5675.62, -5617.26, -99528.11, -99440.92, -119147.00, -105212.07, 0.06, 0.00, 0.00
255, -5501.43, 4741.41, -5654.16, -5596.79, -99506.86, -99419.75, -119124.31, -105189.52, 0.06, 0.00, 0.00
0, -5506.96, 4749.95, -5659.28, -5601.88, -99512.06, -99425.00, -119129.81, -105195.29, 0.06, 0.00, 0.00
1, -5532.06, 4786.69, -5682.24, -5623.88, -99534.80, -99447.76, -119154.17, -105219.45, 0.06, 0.00, 0.00
2, -5531.52, 4784.79, -5681.86, -5623.39, -99534.41, -99447.22, -119153.50, -105218.51, 0.06, 0.00, 0.00
3, -5505.90, 4747.35, -5658.43, -5600.90, -99511.05, -99424.00, -119128.73, -105193.85, 0.06, 0.00, 0.00
4, -5503.27, 4744.45, -5655.80, -5598.46, -99508.58, -99421.61, -119126.10, -105191.53, 0.06, 0.00, 0.00
5, -5529.98, 4782.87, -5680.41, -5622.16, -99533.09, -99445.97, -119152.09, -105217.41, 0.06, 0.00, 0.00
6, -5536.33, 4790.92, -5686.53, -5627.90, -99539.04, -99451.80, -119158.29, -105223.34, 0.06, 0.00, 0.00
7, -5511.67, 4754.75, -5663.91, -5606.13, -99516.53, -99429.34, -119134.21, -105199.33, 0.06, 0.00, 0.00
8, -5501.84, 4742.06, -5654.68, -5597.41, -99507.37, -99420.38, -119124.60, -105190.14, 0.06, 0.00, 0.00
9, -5522.76, 4773.86, -5673.63, -5615.52, -99526.15, -99439.11, -119144.77, -105210.41, 0.06, 0.00, 0.00
10, -5533.53, 4789.20, -5683.47, -5624.75, -99535.87, -99448.74, -119155.27, -105220.41, 0.06, 0.00, 0.00
11, -5513.42, 4758.71, -5665.14, -5607.25, -99517.77, -99430.59, -119135.73, -105200.76, 0.06, 0.00, 0.00
12, -5498.64, 4737.92, -5651.57, -5594.24, -99504.38, -99417.25, -119121.36, -105186.86, 0.06, 0.00, 0.00
13, -5518.02, 4766.76, -5669.34, -5611.34, -99521.90, -99434.81, -119140.18, -105205.70, 0.06, 0.00, 0.00
14, -5533.44, 4789.49, -5683.24, -5624.53, -99535.71, -99448.43, -119155.00, -105220.07, 0.06, 0.00, 0.00
15, -5516.03, 4763.51, -5667.37, -5609.17, -99519.95, -99432.60, -119138.08, -105203.11, 0.06, 0.01, 0.09
16, -5498.53, 4737.70, -5651.48, -5593.97, -99504.20, -99417.00, -119121.31, -105186.59, 0.07, 0.00, 0.00
17, -5509.79, 4756.43, -5661.47, -5603.43, -99514.08, -99426.95, -119132.07, -105197.61, 0.07, 0.00, 0.00
18, -5530.58, 4786.85, -5680.65, -5621.73, -99533.05, -99445.81, -119152.27, -105217.50, 0.07, 0.00, 0.00
19, -5522.60, 4772.54, -5673.65, -5615.14, -99526.05, -99438.91, -119144.56, -105209.57, 0.07, 0.00, 0.00
20, -5501.90, 4741.45, -5654.90, -5597.28, -99507.52, -99420.42, -119124.60, -105189.85, 0.07, 0.00, 0.00
21, -5510.26, 4754.89, -5662.64, -5604.57, -99515.23, -99428.13, -119132.91, -105198.44, 0.07, 0.00, 0.00
22, -5534.05, 4789.67, -5684.34, -5625.49, -99536.88, -99449.61, -119155.98, -105221.30, 0.07, 0.00, 0.00
23, -5529.67, 4781.84, -5680.49, -5621.82, -99533.12, -99445.75, -119151.80, -105216.84, 0.07, 0.00, 0.00
24, -5504.00, 4744.69, -5656.98, -5599.18, -99509.65, -99422.48, -119126.84, -105192.05, 0.07, 0.00, 0.00
25, -5505.86, 4748.65, -5658.59, -5600.77, -99511.28, -99424.16, -119128.60, -105194.21, 0.07, 0.00, 0.00
26, -5528.61, 4783.14, -5679.15, -5620.39, -99531.80, -99444.54, -119150.57, -105215.91, 0.07, 0.00, 0.00
27, -5529.80, 4783.81, -5680.41, -5621.46, -99532.90, -99445.66, -119151.65, -105216.77, 0.07, 0.00, 0.00
28, -5505.88, 4747.91, -5658.61, -5600.56, -99511.23, -99424.04, -119128.49, -105193.70, 0.07, 0.00, 0.00
29, -5499.38, 4740.54, -5652.38, -5594.57, -99505.09, -99418.03, -119122.26, -105187.77, 0.07, 0.00, 0.00
30, -5520.99, 4773.77, -5671.84, -5613.15, -99524.52, -99437.30, -119143.13, -105208.52, 0.07, 0.00, 0.00
31, -5529.91, 4785.20, -5680.29, -5621.22, -99532.78, -99445.48, -119151.70, -105216.81, 0.07, 0.00, 0.00
32, -5508.07, 4752.18, -5660.44, -5602.26, -99513.13, -99425.85, -119130.57, -105195.62, 0.07, 0.00, 0.00
33, -5497.08, 4737.36, -5650.21, -5592.43, -99503.10, -99415.84, -119119.95, -105185.41, 0.07, 0.00, 0.00
34, -5519.23, 4770.31, -5670.57, -5612.01, -99523.40, -99436.02, -119141.59, -105207.04, 0.07, 0.00, 0.00
35, -5534.18, 4790.56, -5684.52, -5625.40, -99537.14, -99449.73, -119156.16, -105221.26, 0.07, 0.00, 0.00
36, -5515.99, 4762.26, -5668.04, -5609.59, -99520.83, -99433.41, -119138.41, -105203.63, 0.07, 0.00, 0.00
37, -5499.27, 4738.82, -5652.47, -5594.69, -99505.47, -99418.19, -119122.14, -105187.69, 0.07, 0.00, 0.00
38, -5515.90, 4764.56, -5667.49, -5609.17, -99520.42, -99433.20, -119138.34, -105203.98, 0.07, 0.00, 0.00
39, -5535.23, 4791.90, -5685.46, -5626.31, -99538.22, -99450.87, -119157.19, -105222.53, 0.07, 0.00, 0.00
40, -5519.43, 4768.25, -5671.17, -5612.57, -99523.98, -99436.54, -119141.99, -105206.98, 0.07, 0.00, 0.00
41, -5499.96, 4739.89, -5653.38, -5595.58, -99506.37, -99419.04, -119123.22, -105188.52, 0.07, 0.00, 0.00
42, -5513.62, 4760.27, -5665.83, -5607.63, -99518.84, -99431.62, -119136.42, -105201.97, 0.07, 0.00, 0.00
43, -5535.39, 4791.97, -5685.86, -5626.65, -99538.57, -99451.18, -119157.50, -105222.78, 0.07, 0.00, 0.00
44, -5523.81, 4774.76, -5675.09, -5616.26, -99527.82, -99440.47, -119146.22, -105211.16, 0.07, 0.00, 0.00
45, -5500.88, 4740.98, -5654.01, -5596.14, -99507.03, -99419.70, -119123.84, -105189.12, 0.07, 0.00, 0.00
46, -5508.23, 4752.47, -5660.67, -5602.73, -99513.78, -99426.45, -119131.09, -105196.60, 0.07, 0.00, 0.00
47, -5531.72, 4787.32, -5682.17, -5623.21, -99535.16, -99447.65, -119153.88, -105219.16, 0.07, 0.00, 0.00
48, -5529.24, 4782.29, -5680.11, -5621.17, -99533.05, -99445.45, -119151.36, -105216.45, 0.07, 0.00, 0.00
49, -5504.16, 4745.54, -5657.25, -5599.29, -99510.32, -99422.81, -119127.06, -105192.31, 0.07, 0.00, 0.00
50, -5503.94, 4746.62, -5656.82, -5599.02, -99509.98, -99422.50, -119126.84, -105192.47, 0.07, 0.00, 0.00
51, -5529.75, 4784.12, -5680.45, -5621.64, -99533.37, -99445.88, -119151.85, -105217.34, 0.07, 0.00, 0.00
52, -5530.29, 4784.95, -5680.87, -5621.91, -99533.77, -99446.28, -119152.25, -105217.41, 0.07, 0.00, 0.00
53, -5503.65, 4746.48, -5656.20, -5598.22, -99509.27, -99421.83, -119126.28, -105191.46, 0.07, 0.00, 0.00
54, -5496.43, 4737.54, -5649.36, -5591.60, -99502.52, -99415.13, -119119.30, -105184.76, 0.07, 0.00, 0.00
55, -5520.48, 4773.15, -5671.49, -5612.86, -99524.58, -99437.16, -119142.88, -105208.23, 0.07, 0.00, 0.00
56, -5532.30, 4788.21, -5682.57, -5623.61, -99535.63, -99448.20, -119154.44, -105219.52, 0.07, 0.00, 0.00
57, -5510.06, 4754.98, -5662.30, -5604.16, -99515.44, -99428.02, -119132.72, -105197.84, 0.07, 0.00, 0.00
58, -5499.18, 4739.55, -5652.26, -5594.69, -99505.58, -99418.23, -119122.14, -105187.71, 0.07, 0.00, 0.00
59, -5517.89, 4768.59, -5669.16, -5610.89, -99522.50, -99435.06, -119140.43, -105205.95, 0.07, 0.00, 0.00
60, -5533.64, 4790.29, -5683.65, -5624.75, -99536.88, -99449.32, -119155.65, -105220.84, 0.06, 0.00, 0.00
61, -5515.18, 4762.28, -5666.99, -5608.63, -99520.18, -99432.60, -119137.74, -105202.80, 0.07, 0.00, 0.00
62, -5495.56, 4735.51, -5648.89, -5591.22, -99502.30, -99414.84, -119118.70, -105184.16, 0.07, 0.00, 0.00
63, -5510.80, 4759.20, -5662.70, -5604.39, -99516.02, -99428.54, -119133.48, -105199.06, 0.06, 0.00, 0.00
64, -5532.88, 4789.82, -5683.27, -5624.12, -99536.30, -99448.83, -119155.00, -105220.25, 0.06, 0.00, 0.00
65, -5519.20, 4768.70, -5670.70, -5612.12, -99523.87, -99436.29, -119141.55, -105206.69, 0.06, 0.00, 0.00
66, -5496.11, 4736.18, -5649.45, -5591.69, -99502.77, -99415.21, -119119.17, -105184.65, 0.06, 0.00, 0.00
67, -5506.96, 4753.19, -5659.22, -5601.17, -99512.53, -99425.09, -119129.81, -105195.40, 0.06, 0.00, 0.00
68, -5533.40, 4789.82, -5683.62, -5624.66, -99536.83, -99449.26, -119155.54, -105220.74, 0.06, 0.00, 0.00
69, -5527.45, 4778.94, -5678.39, -5619.74, -99531.69, -99444.07, -119149.70, -105214.77, 0.06, 0.00, 0.00
70, -5501.75, 4742.12, -5654.63, -5597.08, -99508.22, -99420.65, -119124.67, -105190.05, 0.06, 0.00, 0.00
71, -5504.79, 4748.72, -5657.20, -5599.54, -99510.79, -99423.35, -119127.73, -105193.32, 0.06, 0.00, 0.00
72, -5530.07, 4785.60, -5680.47, -5621.71, -99533.79, -99446.30, -119152.36, -105217.68, 0.06, 0.00, 0.00
73, -5529.31, 4783.00, -5679.98, -5621.20, -99533.30, -99445.79, -119151.60, -105216.72, 0.06, 0.00, 0.00
74, -5502.66, 4744.56, -5655.48, -5597.61, -99508.98, -99421.59, -119125.65, -105190.99, 0.06, 0.00, 0.00
75, -5503.22, 4745.59, -5656.06, -5598.26, -99509.72, -99422.27, -119126.28, -105191.93, 0.06, 0.00, 0.00
76, -5525.33, 4779.47, -5676.07, -5617.35, -99529.50, -99442.05, -119147.69, -105213.23, 0.06, 0.00, 0.00
77, -5534.05, 4789.24, -5684.47, -5625.46, -99537.81, -99450.26, -119156.19, -105221.41, 0.06, 0.00, 0.00
78, -5512.14, 4755.62, -5664.69, -5606.69, -99518.23, -99430.66, -119134.97, -105200.29, 0.06, 0.00, 0.00
79, -5502.91, 4743.91, -5656.06, -5598.37, -99509.63, -99422.21, -119126.03, -105191.66, 0.06, 0.00, 0.00
80, -5527.41, 4779.65, -5678.51, -5619.94, -99531.95, -99444.56, -119149.84, -105215.49, 0.06, 0.00, 0.00
81, -5538.49, 4794.83, -5688.81, -5629.87, -99542.15, -99454.69, -119160.70, -105225.86, 0.06, 0.00, 0.00
82, -5515.81, 4761.46, -5668.02, -5609.80, -99521.50, -99434.01, -119138.64, -105203.69, 0.06, 0.00, 0.00
83, -5500.90, 4741.16, -5654.21, -5596.56, -99507.86, -99420.31, -119124.16, -105189.63, 0.06, 0.00, 0.00
84, -5516.05, 4766.13, -5667.78, -5609.28, -99521.25, -99433.66, -119138.84, -105204.43, 0.06, 0.00, 0.00
85, -5533.87, 4790.60, -5684.14, -5625.06, -99537.50, -99449.93, -119156.03, -105221.33, 0.06, 0.00, 0.00
86, -5516.99, 4764.74, -5668.76, -5610.38, -99522.23, -99434.81, -119139.60, -105204.90, 0.06, 0.00, 0.00
87, -5501.14, 4741.03, -5654.45, -5596.79, -99508.20, -99420.76, -119124.42, -105190.01, 0.06, 0.00, 0.00
88, -5515.76, 4763.51, -5667.73, -5609.59, -99521.43, -99433.97, -119138.62, -105204.34, 0.06, 0.00, 0.00
89, -5536.46, 4793.33, -5686.71, -5627.68, -99540.30, -99452.70, -119158.71, -105224.08, 0.06, 0.00, 0.00
90, -5522.20, 4772.28, -5673.54, -5614.89, -99527.15, -99439.64, -119144.72, -105209.86, 0.06, 0.00, 0.00
91, -5498.51, 4738.37, -5651.59, -5593.86, -99505.38, -99417.85, -119121.49, -105187.02, 0.06, 0.00, 0.00
92, -5505.46, 4750.75, -5657.67, -5599.72, -99511.46, -99423.95, -119128.22, -105194.03, 0.06, 0.00, 0.00
93, -5531.43, 4787.54, -5681.63, -5622.76, -99535.31, -99447.76, -119153.63, -105219.11, 0.06, 0.00, 0.00
94, -5526.29, 4778.33, -5677.14, -5618.47, -99530.84, -99443.24, -119148.70, -105213.79, 0.06, 0.00, 0.00
95, -5502.28, 4743.04, -5655.19, -5597.50, -99509.09, -99421.61, -119125.41, -105190.73, 0.06, 0.00, 0.00
96, -5506.24, 4749.72, -5658.72, -5601.03, -99512.73, -99425.38, -119129.30, -105194.97, 0.06, 0.00, 0.00
97, -5527.23, 4782.51, -5677.66, -5618.92, -99531.42, -99444.05, -119149.52, -105215.07, 0.06, 0.00, 0.00
98, -5526.51, 4780.66, -5677.10, -5618.22, -99530.70, -99443.34, -119148.72, -105213.97, 0.06, 0.00, 0.00
99, -5501.77, 4744.05, -5654.39, -5596.54, -99508.31, -99420.87, -119124.67, -105190.08, 0.06, 0.00, 0.00
100, -5499.65, 4741.45, -5652.35, -5594.69, -99506.41, -99418.99, -119122.66, -105188.38, 0.06, 0.00, 0.00
