%OpenBCI Raw EEG Data
%
%Sample Rate = 250.0 Hz
%First Column = SampleIndex
%Other Columns = EEG data in microvolts followed by Accel Data (in G) interleaved with Aux Data
0, -157906.84, -147142.00, -132577.94, -136707.72, -131743.34, -154542.58, -159196.63, -163297.56, 0.07, 0.00, 0.00
1, -157903.14, -147138.27, -132574.83, -136704.66, -131740.13, -154539.23, -159193.30, -163294.03, 0.07, 0.00, 0.00
2, -157900.03, -147135.25, -132572.14, -136702.23, -131737.53, -154536.48, -159190.50, -163291.11, 0.07, 0.00, 0.00
3, -157903.09, -147137.61, -132574.94, -136704.66, -131740.27, -154538.86, -159193.23, -163293.38, 0.07, 0.00, 0.00
4, -157907.52, -147141.38, -132579.25, -136708.61, -131744.31, -154542.73, -159197.48, -163297.09, 0.07, 0.00, 0.00
5, -157904.20, -147138.00, -132576.50, -136705.81, -131741.42, -154539.73, -159194.45, -163293.81, 0.07, 0.00, 0.00
6, -157895.38, -147129.25, -132568.19, -136697.70, -131733.22, -154531.33, -159186.02, -163285.28, 0.07, 0.00, 0.00
7, -157895.89, -147129.34, -132568.73, -136697.97, -131733.59, -154531.38, -159186.41, -163285.33, 0.07, 0.00, 0.00
8, -157901.38, -147134.06, -132573.98, -136702.80, -131738.52, -154535.98, -159191.48, -163289.92, 0.06, 0.00, 0.00
9, -157900.67, -147133.19, -132573.69, -136702.48, -131738.16, -154535.44, -159191.05, -163289.17, 0.06, 0.00, 0.00
10, -157896.45, -147129.17, -132570.03, -136699.11, -131734.61, -154531.78, -159187.31, -163285.30, 0.06, 0.00, 0.00
11, -157898.28, -147130.63, -132571.81, -136700.78, -131736.39, -154533.23, -159189.03, -163286.69, 0.06, 0.00, 0.00
12, -157899.38, -147131.05, -132572.80, -136701.23, -131737.13, -154533.50, -159189.81, -163286.95, 0.06, 0.00, 0.00
13, -157895.11, -147126.44, -132568.84, -136697.09, -131733.08, -154529.25, -159185.63, -163282.48, 0.06, 0.00, 0.00
14, -157888.63, -147120.09, -132563.08, -136691.34, -131727.25, -154523.38, -159179.66, -163276.22, 0.06, 0.00, 0.00
15, -157889.61, -147120.86, -132564.22, -136692.48, -131728.33, -154524.16, -159180.56, -163277.03, 0.06, 0.00, 0.00
16, -157896.34, -147126.73, -132570.61, -136698.53, -131734.61, -154529.94, -159186.89, -163282.92, 0.06, 0.00, 0.00
17, -157896.63, -147126.70, -132571.09, -136698.77, -131734.83, -154530.13, -159187.33, -163282.91, 0.06, 0.00, 0.00
18, -157892.14, -147122.23, -132567.20, -136695.16, -131731.05, -154526.19, -159183.42, -163278.73, 0.06, 0.00, 0.00
19, -157890.08, -147120.03, -132565.38, -136693.31, -131729.27, -154524.36, -159181.47, -163276.56, 0.06, 0.00, 0.00
20, -157896.00, -147125.25, -132571.02, -136698.50, -131734.72, -154529.34, -159186.97, -163281.64, 0.06, 0.00, 0.00
21, -157895.72, -147124.63, -132570.89, -136698.17, -131734.34, -154528.59, -159186.64, -163280.83, 0.07, 0.00, 0.00
22, -157890.55, -147119.47, -132566.34, -136693.67, -131729.83, -154523.84, -159181.86, -163275.83, 0.07, 0.00, 0.00
23, -157886.22, -147115.11, -132562.41, -136689.88, -131725.94, -154519.91, -159177.86, -163271.58, 0.07, 0.00, 0.00
24, -157889.47, -147117.72, -132565.48, -136692.56, -131728.64, -154522.36, -159180.78, -163274.14, 0.06, 0.00, 0.00
25, -157891.64, -147119.27, -132567.56, -136694.34, -131730.69, -154524.02, -159182.66, -163275.67, 0.06, 0.00, 0.00
26, -157891.47, -147119.09, -132567.98, -136694.75, -131731.03, -154524.22, -159182.84, -163275.64, 0.06, 0.00, 0.00
27, -157887.86, -147115.56, -132565.05, -136691.89, -131728.02, -154520.98, -159179.70, -163272.27, 0.06, 0.00, 0.00
28, -157891.36, -147118.66, -132568.48, -136694.97, -131731.16, -154523.89, -159183.00, -163275.22, 0.06, 0.00, 0.00
29, -157892.16, -147118.75, -132569.00, -136695.22, -131731.61, -154523.97, -159183.47, -163275.17, 0.06, 0.00, 0.00
30, -157891.36, -147117.77, -132568.66, -136694.81, -131731.28, -154523.45, -159183.02, -163274.34, 0.06, 0.00, 0.00
31, -157888.31, -147114.73, -132566.14, -136692.52, -131728.75, -154520.88, -159180.20, -163271.48, 0.06, 0.00, 0.00
32, -157890.50, -147116.45, -132568.23, -136694.48, -131730.67, -154522.52, -159182.30, -163273.20, 0.06, 0.00, 0.00
33, -157891.95, -147117.20, -132569.44, -136695.33, -131731.70, -154523.17, -159183.52, -163273.88, 0.06, 0.00, 0.00
34, -157888.89, -147114.06, -132566.83, -136692.63, -131729.02, -154520.23, -159180.67, -163270.80, 0.06, 0.00, 0.00
35, -157883.70, -147109.00, -132562.31, -136688.27, -131724.50, -154515.69, -159176.00, -163265.89, 0.06, 0.00, 0.00
36, -157881.41, -147106.25, -132560.08, -136685.86, -131722.14, -154513.02, -159173.61, -163263.13, 0.07, 0.00, 0.00
37, -157886.08, -147110.14, -132564.55, -136689.81, -131726.22, -154516.91, -159177.86, -163266.95, 0.07, 0.00, 0.00
38, -157885.52, -147109.34, -132564.34, -136689.42, -131725.80, -154516.23, -159177.55, -163266.20, 0.07, 0.00, 0.00
39, -157881.25, -147105.25, -132560.70, -136685.98, -131722.25, -154512.59, -159173.81, -163262.28, 0.07, 0.00, 0.00
40, -157880.30, -147104.02, -132559.86, -136685.25, -131721.44, -154511.59, -159172.84, -163261.06, 0.07, 0.00, 0.00
41, -157885.50, -147108.47, -132564.91, -136689.78, -131726.11, -154515.92, -159177.70, -163265.45, 0.07, 0.00, 0.00
42, -157886.89, -147109.39, -132566.27, -136691.00, -131727.45, -154516.98, -159178.81, -163266.41, 0.07, 0.00, 0.00
43, -157882.02, -147104.56, -132562.02, -136686.88, -131723.30, -154512.63, -159174.45, -163261.77, 0.07, 0.00, 0.00
44, -157881.36, -147103.91, -132561.91, -136686.72, -131723.11, -154512.22, -159174.14, -163261.30, 0.07, 0.00, 0.00
45, -157884.25, -147106.17, -132564.58, -136688.89, -131725.52, -154514.34, -159176.63, -163263.38, 0.07, 0.00, 0.00
46, -157884.53, -147105.86, -132564.80, -136688.83, -131725.55, -154514.03, -159176.73, -163263.08, 0.07, 0.00, 0.00
47, -157883.03, -147104.45, -132563.98, -136688.11, -131724.66, -154513.00, -159175.81, -163261.73, 0.07, 0.00, 0.00
48, -157879.39, -147100.94, -132560.91, -136685.16, -131721.53, -154509.80, -159172.59, -163258.30, 0.07, 0.00, 0.00
49, -157880.02, -147100.80, -132561.39, -136685.25, -131721.69, -154509.63, -159172.78, -163258.19, 0.07, 0.00, 0.00
50, -157883.59, -147103.89, -132564.81, -136688.44, -131724.95, -154512.58, -159176.06, -163261.14, 0.06, 0.00, 0.00
51, -157878.86, -147099.03, -132560.44, -136684.17, -131720.75, -154508.23, -159171.70, -163256.38, 0.06, 0.00, 0.00
52, -157873.06, -147093.27, -132555.23, -136678.98, -131715.50, -154502.92, -159166.34, -163250.70, 0.06, 0.00, 0.00
53, -157876.98, -147096.64, -132559.16, -136682.50, -131719.14, -154506.30, -159170.00, -163254.16, 0.06, 0.00, 0.00
54, -157882.19, -147101.14, -132564.14, -136687.11, -131723.91, -154510.67, -159174.91, -163258.64, 0.06, 0.00, 0.00
55, -157879.73, -147098.55, -132562.09, -136685.09, -131721.86, -154508.44, -159172.78, -163256.16, 0.07, 0.00, 0.00
56, -157873.73, -147092.75, -132556.81, -136680.00, -131716.66, -154503.09, -159167.27, -163250.47, 0.07, 0.00, 0.00
57, -157873.03, -147091.53, -132556.03, -136679.03, -131715.72, -154501.94, -159166.30, -163249.22, 0.07, 0.00, 0.00
58, -157879.00, -147096.69, -132561.73, -136684.41, -131721.17, -154507.02, -159171.86, -163254.44, 0.07, 0.00, 0.00
59, -157877.67, -147095.17, -132560.72, -136683.33, -131720.06, -154505.67, -159170.72, -163252.83, 0.07, 0.00, 0.00
60, -157873.06, -147090.70, -132556.72, -136679.48, -131716.20, -154501.72, -159166.66, -163248.52, 0.07, 0.00, 0.00
61, -157875.55, -147092.91, -132559.36, -136681.97, -131718.78, -154503.91, -159169.16, -163250.77, 0.07, 0.00, 0.00
62, -157880.56, -147097.14, -132564.06, -136686.23, -131723.16, -154507.95, -159173.73, -163254.77, 0.07, 0.00, 0.00
63, -157881.08, -147097.52, -132564.84, -136686.88, -131723.77, -154508.55, -159174.39, -163255.06, 0.07, 0.00, 0.00
64, -157877.83, -147094.30, -132562.27, -136684.58, -131721.31, -154505.88, -159171.69, -163252.16, 0.07, 0.00, 0.00
65, -157876.77, -147092.98, -132561.36, -136683.73, -131720.41, -154504.80, -159170.64, -163250.92, 0.07, 0.00, 0.00
66, -157881.09, -147096.58, -132565.48, -136687.38, -131724.22, -154508.33, -159174.55, -163254.50, 0.07, 0.00, 0.00
67, -157884.41, -147099.48, -132568.91, -136690.59, -131727.63, -154511.33, -159177.92, -163257.38, 0.07, 0.00, 0.00
68, -157881.67, -147096.78, -132566.77, -136688.56, -131725.48, -154509.02, -159175.50, -163254.81, 0.07, 0.00, 0.00
69, -157878.81, -147093.83, -132564.30, -136686.09, -131723.03, -154506.45, -159172.89, -163252.06, 0.06, 0.00, 0.00
70, -157882.17, -147096.47, -132567.39, -136688.83, -131725.89, -154508.91, -159175.89, -163254.56, 0.06, 0.00, 0.00
71, -157880.25, -147094.08, -132565.58, -136686.72, -131723.88, -154506.58, -159173.86, -163252.13, 0.06, 0.00, 0.00
72, -157875.86, -147089.73, -132561.64, -136682.98, -131719.98, -154502.63, -159169.83, -163247.91, 0.06, 0.00, 0.00
73, -157872.47, -147086.34, -132558.88, -136680.28, -131717.17, -154499.55, -159166.91, -163244.59, 0.06, 0.00, 0.00
74, -157873.47, -147086.81, -132559.86, -136680.78, -131717.80, -154499.92, -159167.69, -163245.05, 0.06, 0.00, 0.00
75, -157878.61, -147091.27, -132564.84, -136685.41, -131722.45, -154504.39, -159172.44, -163249.47, 0.06, 0.00, 0.00
76, -157875.22, -147087.80, -132561.80, -136682.50, -131719.55, -154501.27, -159169.27, -163246.03, 0.06, 0.00, 0.00
77, -157871.66, -147084.23, -132558.84, -136679.66, -131716.67, -154498.20, -159166.23, -163242.81, 0.06, 0.00, 0.00
78, -157871.28, -147083.30, -132558.38, -136678.81, -131715.94, -154497.28, -159165.69, -163241.75, 0.06, 0.00, 0.00
79, -157873.06, -147084.47, -132559.86, -136679.95, -131717.23, -154498.20, -159167.06, -163242.72, 0.06, 0.00, 0.00
80, -157872.98, -147084.31, -132560.28, -136680.33, -131717.53, -154498.34, -159167.17, -163242.66, 0.06, 0.00, 0.00
81, -157867.86, -147079.34, -132555.77, -136676.20, -131713.17, -154493.83, -159162.61, -163237.84, 0.07, 0.00, 0.00
82, -157867.44, -147078.42, -132555.31, -136675.58, -131712.67, -154492.95, -159162.09, -163236.84, 0.07, 0.00, 0.00
83, -157871.97, -147082.19, -132559.67, -136679.38, -131716.72, -154496.64, -159166.23, -163240.64, 0.07, 0.00, 0.00
84, -157870.41, -147080.42, -132558.41, -136678.00, -131715.45, -154495.16, -159164.83, -163238.92, 0.07, 0.00, 0.00
85, -157865.83, -147075.97, -132554.42, -136674.14, -131711.50, -154491.16, -159160.64, -163234.50, 0.07, 0.00, 0.00
86, -157866.05, -147075.86, -132554.77, -136674.36, -131711.81, -154491.19, -159160.89, -163234.38, 0.07, 0.00, 0.00
87, -157869.50, -147078.55, -132557.89, -136677.20, -131714.69, -154493.67, -159163.92, -163237.02, 0.07, 0.00, 0.00
88, -157867.02, -147075.80, -132555.70, -136674.78, -131712.34, -154490.98, -159161.45, -163234.34, 0.07, 0.00, 0.00
89, -157862.03, -147070.94, -132551.47, -136670.75, -131708.05, -154486.77, -159157.05, -163229.63, 0.06, 0.00, 0.00
90, -157857.77, -147066.41, -132547.42, -136666.77, -131703.92, -154482.42, -159152.89, -163225.19, 0.06, 0.00, 0.00
91, -157860.95, -147069.00, -132550.41, -136669.27, -131706.64, -154484.70, -159155.66, -163227.66, 0.06, 0.00, 0.00
92, -157865.14, -147072.73, -132554.67, -136673.31, -131710.75, -154488.69, -159159.77, -163231.39, 0.06, 0.00, 0.00
93, -157862.34, -147070.09, -132552.56, -136671.33, -131708.67, -154486.47, -159157.69, -163228.77, 0.06, 0.00, 0.00
94, -157857.11, -147064.70, -132547.61, -136666.50, -131703.72, -154481.33, -159152.59, -163223.42, 0.06, 0.00, 0.00
95, -157860.00, -147066.89, -132550.13, -136668.63, -131706.08, -154483.34, -159155.08, -163225.58, 0.06, 0.00, 0.00
96, -157864.02, -147070.27, -132554.17, -136672.36, -131709.89, -154486.98, -159158.98, -163229.08, 0.06, 0.00, 0.00
97, -157860.89, -147067.20, -132551.61, -136669.94, -131707.34, -154484.23, -159156.13, -163226.05, 0.06, 0.00, 0.00
98, -157855.97, -147062.31, -132547.16, -136665.69, -131703.02, -154479.72, -159151.59, -163221.31, 0.06, 0.00, 0.00
99, -157859.03, -147064.84, -132550.17, -136668.31, -131705.75, -154482.16, -159154.41, -163223.72, 0.06, 0.00, 0.00
100, -157862.78, -147067.91, -132553.94, -136671.61, -131709.14, -154485.28, -159157.89, -163226.92, 0.06, 0.00, 0.00
101, -157861.11, -147066.14, -132552.80, -136670.34, -131707.92, -154483.78, -159156.59, -163225.19, 0.06, 0.00, 0.00
102, -157856.81, -147062.00, -132549.02, -136666.81, -131704.34, -154479.97, -159152.75, -163221.17, 0.06, 0.00, 0.00
103, -157859.33, -147064.02, -132551.50, -136669.05, -131706.63, -154482.06, -159155.13, -163223.14, 0.06, 0.00, 0.00
104, -157862.39, -147066.41, -132554.36, -136671.44, -131709.30, -154484.28, -159157.80, -163225.48, 0.07, 0.00, 0.00
105, -157863.23, -147067.00, -132555.42, -136672.52, -131710.42, -154485.17, -159158.70, -163226.11, 0.07, 0.00, 0.00
106, -157860.11, -147064.17, -132553.03, -136670.42, -131708.08, -154482.75, -159156.17, -163223.41, 0.06, 0.00, 0.00
107, -157859.17, -147062.88, -132552.25, -136669.48, -131707.16, -154481.59, -159155.25, -163222.11, 0.06, 0.00, 0.00
108, -157863.25, -147066.00, -132555.98, -136672.64, -131710.48, -154484.72, -159158.75, -163225.19, 0.07, 0.00, 0.00
109, -157862.14, -147064.66, -132555.14, -136671.72, -131709.66, -154483.55, -159157.80, -163223.92, 0.07, 0.00, 0.00
110, -157859.69, -147062.27, -132553.38, -136670.14, -131707.92, -154481.70, -159155.91, -163221.75, 0.07, 0.00, 0.00
111, -157859.19, -147061.53, -132553.13, -136669.88, -131707.47, -154481.19, -159155.48, -163221.06, 0.07, 0.00, 0.00
112, -157859.70, -147061.31, -132553.38, -136669.72, -131707.47, -154480.81, -159155.64, -163220.70, 0.07, 0.00, 0.00
113, -157860.33, -147061.59, -132554.06, -136670.27, -131708.14, -154481.14, -159156.31, -163221.00, 0.06, 0.00, 0.00
114, -157852.08, -147053.48, -132546.52, -136662.89, -131700.67, -154473.55, -159148.59, -163213.13, 0.06, 0.00, 0.00
115, -157850.36, -147051.58, -132545.03, -136661.47, -131699.25, -154471.88, -159146.97, -163211.25, 0.06, 0.00, 0.00
116, -157856.38, -147056.75, -132550.80, -136666.73, -131704.66, -154476.97, -159152.50, -163216.39, 0.07, 0.00, 0.00
117, -157858.78, -147058.80, -132553.23, -136668.94, -131706.89, -154479.06, -159154.86, -163218.38, 0.07, 0.00, 0.00
118, -157856.17, -147056.25, -132551.27, -136666.98, -131704.91, -154476.91, -159152.70, -163215.98, 0.07, 0.00, 0.00
119, -157854.97, -147054.94, -132550.38, -136666.20, -131704.14, -154475.97, -159151.66, -163214.72, 0.07, 0.00, 0.00
120, -157857.52, -147056.88, -132552.67, -136668.22, -131706.23, -154477.77, -159153.89, -163216.56, 0.06, 0.00, 0.00
121, -157862.28, -147061.17, -132557.50, -136672.67, -131710.80, -154481.94, -159158.45, -163220.80, 0.06, 0.00, 0.00
122, -157856.64, -147055.50, -132552.36, -136667.56, -131705.69, -154476.64, -159153.25, -163215.19, 0.06, 0.00, 0.00
123, -157850.86, -147049.69, -132547.11, -136662.45, -131700.41, -154471.30, -159147.77, -163209.55, 0.06, 0.00, 0.00
124, -157854.47, -147052.66, -132550.64, -136665.72, -131703.88, -154474.38, -159151.09, -163212.55, 0.06, 0.00, 0.00
125, -157856.13, -147053.69, -132552.19, -136666.83, -131705.14, -154475.25, -159152.55, -163213.50, 0.06, 0.00, 0.00
126, -157853.69, -147051.16, -132550.17, -136664.80, -131703.05, -154473.06, -159150.38, -163211.11, 0.06, 0.00, 0.00
127, -157849.33, -147047.03, -132546.48, -136661.33, -131699.42, -154469.38, -159146.47, -163207.11, 0.06, 0.00, 0.00
128, -157849.16, -147046.36, -132546.28, -136660.91, -131699.06, -154468.63, -159146.16, -163206.38, 0.06, 0.00, 0.00
129, -157851.80, -147048.36, -132548.75, -136662.89, -131701.25, -154470.44, -159148.45, -163208.20, 0.06, 0.00, 0.00
130, -157850.11, -147046.44, -132547.31, -136661.41, -131699.73, -154468.81, -159146.92, -163206.27, 0.06, 0.00, 0.00
131, -157845.47, -147041.89, -132543.36, -136657.64, -131695.89, -154464.77, -159142.83, -163201.97, 0.06, 0.00, 0.00
132, -157846.19, -147042.31, -132544.20, -136658.31, -131696.67, -154465.23, -159143.61, -163202.48, 0.06, 0.00, 0.00
133, -157851.50, -147046.78, -132549.22, -136662.86, -131701.34, -154469.61, -159148.38, -163206.86, 0.06, 0.00, 0.00
134, -157852.58, -147047.58, -132550.63, -136664.17, -131702.64, -154470.75, -159149.58, -163207.72, 0.06, 0.00, 0.00
135, -157849.00, -147044.20, -132547.78, -136661.38, -131699.89, -154467.92, -159146.52, -163204.47, 0.06, 0.00, 0.00
136, -157846.88, -147041.84, -132545.77, -136659.36, -131697.81, -154465.66, -159144.39, -163202.06, 0.06, 0.00, 0.00
137, -157849.72, -147043.89, -132548.23, -136661.48, -131700.14, -154467.61, -159146.83, -163204.00, 0.06, 0.00, 0.00
138, -157851.45, -147045.13, -132550.02, -136663.13, -131701.75, -154468.94, -159148.58, -163205.34, 0.06, 0.00, 0.00
139, -157847.98, -147041.80, -132547.31, -136660.50, -131699.02, -154466.06, -159145.56, -163202.23, 0.06, 0.00, 0.00
140, -157844.91, -147038.73, -132544.61, -136657.83, -131696.30, -154463.20, -159142.77, -163199.27, 0.06, 0.00, 0.00
141, -157847.05, -147040.13, -132546.42, -136659.36, -131697.88, -154464.50, -159144.50, -163200.45, 0.06, 0.00, 0.00
142, -157847.92, -147040.61, -132547.45, -136659.98, -131698.75, -154465.02, -159145.38, -163200.91, 0.06, 0.00, 0.00
143, -157844.22, -147036.88, -132544.25, -136656.86, -131695.56, -154461.66, -159141.98, -163197.25, 0.06, 0.00, 0.00
144, -157839.09, -147031.72, -132539.64, -136652.38, -131690.80, -154456.83, -159137.13, -163192.16, 0.06, 0.00, 0.00
145, -157842.50, -147034.48, -132542.91, -136655.30, -131693.86, -154459.56, -159140.19, -163194.97, 0.06, 0.00, 0.00
146, -157846.92, -147038.22, -132547.16, -136659.20, -131698.02, -154463.33, -159144.34, -163198.73, 0.06, 0.00, 0.00
147, -157846.53, -147037.84, -132547.22, -136659.44, -131698.08, -154463.20, -159144.34, -163198.39, 0.06, 0.00, 0.00
148, -157843.08, -147034.47, -132544.34, -136656.64, -131695.17, -154460.23, -159141.33, -163195.09, 0.06, 0.00, 0.00
149, -157843.67, -147034.53, -132544.86, -136656.86, -131695.53, -154460.47, -159141.69, -163195.22, 0.06, 0.00, 0.00
150, -157843.95, -147034.00, -132544.92, -136656.58, -131695.48, -154459.88, -159141.73, -163194.69, 0.06, 0.00, 0.00
151, -157841.63, -147031.53, -132543.03, -136654.58, -131693.56, -154457.67, -159139.66, -163192.34, 0.06, 0.00, 0.00
152, -157839.31, -147029.44, -132541.44, -136653.27, -131692.03, -154455.98, -159137.84, -163190.38, 0.06, 0.00, 0.00
153, -157841.27, -147030.94, -132543.36, -136655.09, -131693.77, -154457.64, -159139.63, -163191.83, 0.05, 0.00, 0.00
154, -157842.63, -147031.58, -132544.47, -136655.80, -131694.73, -154458.17, -159140.64, -163192.42, 0.05, 0.00, 0.00
155, -157840.06, -147028.78, -132542.20, -136653.36, -131692.41, -154455.56, -159138.27, -163189.67, 0.05, 0.00, 0.00
156, -157836.25, -147025.17, -132539.06, -136650.52, -131689.23, -154452.31, -159134.95, -163186.22, 0.06, 0.00, 0.00
157, -157837.48, -147026.02, -132540.50, -136651.83, -131690.59, -154453.36, -159136.23, -163187.11, 0.06, 0.00, 0.00
158, -157842.78, -147030.47, -132545.42, -136656.23, -131695.28, -154457.70, -159141.00, -163191.41, 0.06, 0.00, 0.00
159, -157841.53, -147028.92, -132544.36, -136655.03, -131694.16, -154456.34, -159139.75, -163189.95, 0.06, 0.00, 0.00
160, -157834.58, -147022.11, -132538.05, -136648.86, -131687.91, -154449.97, -159133.28, -163183.27, 0.06, 0.00, 0.00
161, -157831.23, -147018.69, -132535.05, -136645.91, -131684.81, -154446.70, -159130.20, -163179.86, 0.06, 0.00, 0.00
162, -157834.67, -147021.30, -132538.27, -136648.61, -131687.63, -154449.28, -159133.22, -163182.39, 0.06, 0.00, 0.00
163, -157835.91, -147021.97, -132539.52, -136649.63, -131688.78, -154450.02, -159134.30, -163183.17, 0.06, 0.00, 0.00
164, -157833.91, -147020.06, -132538.06, -136648.33, -131687.44, -154448.53, -159132.77, -163181.52, 0.06, 0.00, 0.00
165, -157832.53, -147018.58, -132537.08, -136647.36, -131686.39, -154447.39, -159131.63, -163180.11, 0.06, 0.00, 0.00
166, -157836.30, -147021.66, -132540.67, -136650.45, -131689.64, -154450.38, -159134.98, -163183.00, 0.06, 0.00, 0.00
167, -157837.23, -147022.03, -132541.53, -136651.08, -131690.42, -154450.89, -159135.86, -163183.36, 0.06, 0.00, 0.00
168, -157831.41, -147016.19, -132536.25, -136645.84, -131685.20, -154445.39, -159130.44, -163177.72, 0.06, 0.00, 0.00
169, -157827.72, -147012.58, -132533.13, -136642.89, -131682.09, -154442.13, -159127.05, -163174.19, 0.06, 0.00, 0.00
170, -157830.36, -147014.61, -132535.64, -136645.08, -131684.45, -154444.11, -159129.47, -163176.11, 0.05, 0.00, 0.00
171, -157834.53, -147018.14, -132539.69, -136648.77, -131688.16, -154447.55, -159133.31, -163179.53, 0.06, 0.00, 0.00
172, -157832.92, -147016.38, -132538.39, -136647.63, -131686.91, -154446.22, -159131.98, -163177.88, 0.06, 0.00, 0.00
173, -157828.59, -147012.36, -132534.80, -136644.20, -131683.33, -154442.64, -159128.30, -163174.02, 0.06, 0.00, 0.00
174, -157829.58, -147012.81, -132535.67, -136644.81, -131684.09, -154443.03, -159129.02, -163174.36, 0.06, 0.00, 0.00
175, -157834.00, -147016.52, -132539.92, -136648.59, -131688.03, -154446.61, -159133.03, -163178.03, 0.06, 0.00, 0.00
176, -157830.77, -147013.14, -132537.19, -136645.73, -131685.14, -154443.55, -159130.16, -163174.75, 0.06, 0.00, 0.00
177, -157824.41, -147007.00, -132531.56, -136640.28, -131679.52, -154437.81, -159124.33, -163168.64, 0.06, 0.00, 0.00
178, -157824.36, -147006.41, -132531.38, -136640.09, -131679.28, -154437.34, -159124.05, -163168.20, 0.06, 0.00, 0.00
179, -157826.58, -147007.86, -132533.38, -136641.58, -131680.97, -154438.56, -159125.91, -163169.61, 0.06, 0.00, 0.00
180, -157827.09, -147008.09, -132534.27, -136642.27, -131681.81, -154439.11, -159126.52, -163169.94, 0.06, 0.00, 0.00
181, -157822.33, -147003.48, -132530.16, -136638.31, -131677.72, -154435.06, -159122.27, -163165.47, 0.07, 0.00, 0.00
182, -157822.63, -147003.58, -132530.55, -136638.67, -131678.08, -154435.17, -159122.72, -163165.52, 0.07, 0.00, 0.00
183, -157828.66, -147008.77, -132536.27, -136643.94, -131683.52, -154440.25, -159128.19, -163170.61, 0.07, 0.03, 0.04
184, -157829.80, -147009.52, -132537.59, -136645.17, -131684.72, -154441.20, -159129.38, -163171.38, 0.07, 0.00, 0.00
185, -157826.56, -147006.39, -132534.95, -136642.72, -131682.09, -154438.44, -159126.67, -163168.33, 0.07, 0.00, 0.00
186, -157822.69, -147002.45, -132531.47, -136639.34, -131678.59, -154434.77, -159123.09, -163164.52, 0.07, 0.00, 0.00
187, -157825.48, -147004.56, -132534.08, -136641.44, -131680.88, -154436.84, -159125.45, -163166.64, 0.07, 0.00, 0.00
188, -157828.45, -147007.02, -132537.14, -136644.13, -131683.83, -154439.42, -159128.30, -163169.09, 0.07, 0.00, 0.00
189, -157826.17, -147004.77, -132535.42, -136642.48, -131682.09, -154437.58, -159126.44, -163166.98, 0.07, 0.00, 0.00
190, -157825.78, -147004.42, -132535.45, -136642.67, -131682.22, -154437.56, -159126.33, -163166.67, 0.07, 0.00, 0.00
191, -157830.52, -147008.41, -132540.00, -136646.80, -131686.55, -154441.41, -159130.77, -163170.72, 0.07, 0.00, 0.00
192, -157832.97, -147010.25, -132542.28, -136648.77, -131688.53, -154443.23, -159132.86, -163172.47, 0.07, 0.00, 0.00
193, -157829.94, -147007.22, -132539.64, -136646.41, -131685.98, -154440.53, -159130.25, -163169.55, 0.07, 0.00, 0.00
194, -157822.67, -147000.06, -132533.02, -136639.89, -131679.47, -154433.72, -159123.45, -163162.55, 0.07, 0.00, 0.00
195, -157826.75, -147003.58, -132537.02, -136643.56, -131683.23, -154437.19, -159127.25, -163165.98, 0.07, 0.00, 0.00
196, -157829.78, -147005.88, -132539.83, -136645.98, -131685.80, -154439.47, -159129.97, -163168.13, 0.07, 0.00, 0.00
197, -157827.06, -147003.03, -132537.61, -136643.72, -131683.44, -154437.08, -159127.52, -163165.41, 0.07, 0.00, 0.00
198, -157822.20, -146998.28, -132533.44, -136639.66, -131679.31, -154432.72, -159123.06, -163160.83, 0.07, 0.00, 0.00
199, -157821.80, -146997.45, -132533.05, -136639.03, -131678.88, -154431.86, -159122.64, -163160.00, 0.07, 0.00, 0.00
200, -157824.30, -146999.28, -132535.25, -136640.92, -131680.88, -154433.53, -159124.81, -163161.63, 0.07, 0.00, 0.00
201, -157822.89, -146997.58, -132534.06, -136639.70, -131679.63, -154432.13, -159123.45, -163159.95, 0.07, 0.00, 0.00
202, -157819.61, -146994.50, -132531.53, -136637.34, -131677.09, -154429.53, -159120.70, -163157.06, 0.07, 0.00, 0.00
203, -157821.02, -146995.48, -132532.94, -136638.64, -131678.48, -154430.70, -159122.08, -163158.19, 0.07, 0.00, 0.00
204, -157822.83, -146996.48, -132534.42, -136639.70, -131679.69, -154431.50, -159123.41, -163158.98, 0.07, 0.00, 0.00
205, -157821.44, -146994.92, -132533.41, -136638.53, -131678.48, -154430.13, -159122.27, -163157.42, 0.07, 0.00, 0.00
206, -157815.06, -146988.69, -132527.78, -136632.98, -131672.88, -154424.33, -159116.47, -163151.44, 0.07, 0.00, 0.00
207, -157810.83, -146984.27, -132523.73, -136628.92, -131668.84, -154420.17, -159112.30, -163147.03, 0.07, 0.00, 0.00
208, -157812.91, -146985.61, -132525.50, -136630.23, -131670.33, -154421.36, -159113.84, -163148.22, 0.07, 0.00, 0.00
209, -157814.67, -146986.98, -132527.31, -136631.89, -131672.05, -154422.81, -159115.64, -163149.58, 0.07, 0.00, 0.00
210, -157811.56, -146983.81, -132524.88, -136629.55, -131669.50, -154420.13, -159112.98, -163146.63, 0.07, 0.00, 0.00
211, -157808.72, -146980.86, -132522.48, -136627.11, -131667.03, -154417.61, -159110.31, -163143.91, 0.07, 0.00, 0.00
212, -157811.47, -146982.81, -132524.88, -136629.08, -131669.25, -154419.41, -159112.61, -163145.73, 0.07, 0.00, 0.00
213, -157815.47, -146986.30, -132528.86, -136632.77, -131673.08, -154422.97, -159116.52, -163149.22, 0.07, 0.00, 0.00
214, -157814.28, -146985.25, -132528.39, -136632.39, -131672.61, -154422.31, -159115.88, -163148.31, 0.07, 0.00, 0.00
215, -157811.30, -146982.27, -132525.83, -136630.11, -131670.09, -154419.70, -159113.25, -163145.47, 0.07, 0.00, 0.00
216, -157813.95, -146984.23, -132528.16, -136632.16, -131672.17, -154421.53, -159115.52, -163147.33, 0.07, 0.00, 0.00
217, -157817.09, -146986.78, -132531.25, -136634.80, -131675.08, -154423.97, -159118.36, -163149.78, 0.07, 0.00, 0.00
218, -157814.63, -146984.19, -132529.33, -136632.91, -131673.05, -154421.83, -159116.20, -163147.28, 0.07, 0.00, 0.00
219, -157807.25, -146977.05, -132522.69, -136626.36, -131666.45, -154415.14, -159109.41, -163140.28, 0.07, 0.00, 0.00
220, -157807.31, -146976.50, -132522.64, -136626.06, -131666.19, -154414.55, -159109.09, -163139.72, 0.07, 0.00, 0.00
221, -157811.22, -146979.64, -132526.30, -136629.34, -131669.73, -154417.61, -159112.67, -163142.92, 0.07, 0.00, 0.00
222, -157807.61, -146976.02, -132523.17, -136626.17, -131666.44, -154414.31, -159109.48, -163139.30, 0.07, 0.00, 0.00
223, -157803.89, -146972.39, -132520.05, -136623.33, -131663.39, -154411.14, -159106.28, -163135.83, 0.06, 0.00, 0.00
224, -157804.97, -146973.05, -132521.16, -136624.23, -131664.36, -154411.86, -159107.28, -163136.50, 0.07, 0.00, 0.00
225, -157808.50, -146975.92, -132524.47, -136627.06, -131667.34, -154414.50, -159110.31, -163139.16, 0.07, 0.00, 0.00
226, -157808.97, -146976.06, -132525.25, -136627.72, -131668.05, -154414.92, -159110.91, -163139.41, 0.07, 0.00, 0.00
227, -157803.27, -146970.52, -132520.16, -136622.81, -131663.22, -154409.84, -159105.80, -163134.05, 0.07, 0.00, 0.00
228, -157804.39, -146971.45, -132521.61, -136624.05, -131664.47, -154410.97, -159107.00, -163135.03, 0.06, 0.00, 0.00
229, -157808.45, -146974.66, -132525.20, -136627.36, -131667.84, -154414.09, -159110.59, -163138.20, 0.06, 0.00, 0.00
230, -157809.38, -146975.23, -132526.19, -136628.25, -131668.88, -154414.72, -159111.47, -163138.77, 0.06, 0.00, 0.00
231, -157806.97, -146972.86, -132524.36, -136626.63, -131667.13, -154412.78, -159109.41, -163136.53, 0.06, 0.00, 0.00
232, -157804.73, -146970.45, -132522.53, -136624.78, -131665.16, -154410.66, -159107.47, -163134.17, 0.06, 0.00, 0.00
233, -157806.50, -146971.52, -132524.06, -136625.84, -131666.45, -154411.45, -159108.86, -163135.03, 0.07, 0.00, 0.00
234, -157807.98, -146972.64, -132525.70, -136627.14, -131667.91, -154412.69, -159110.23, -163136.13, 0.06, 0.00, 0.00
235, -157803.11, -146967.92, -132521.44, -136623.16, -131663.75, -154408.45, -159105.91, -163131.61, 0.06, 0.00, 0.00
236, -157800.56, -146965.22, -132519.27, -136621.08, -131661.56, -154406.09, -159103.53, -163129.17, 0.07, 0.00, 0.00
237, -157802.06, -146965.98, -132520.67, -136621.92, -131662.50, -154406.88, -159104.67, -163129.78, 0.07, 0.00, 0.00
238, -157803.06, -146966.42, -132521.61, -136622.50, -131663.33, -154407.30, -159105.52, -163130.27, 0.07, 0.00, 0.00
239, -157799.88, -146963.19, -132518.91, -136619.80, -131660.64, -154404.44, -159102.64, -163127.03, 0.07, 0.00, 0.00
240, -157797.81, -146961.19, -132517.44, -136618.58, -131659.19, -154402.92, -159101.00, -163125.23, 0.07, 0.00, 0.00
241, -157803.00, -146965.80, -132522.44, -136623.30, -131664.08, -154407.39, -159105.83, -163129.70, 0.07, 0.00, 0.00
242, -157804.58, -146966.83, -132523.91, -136624.27, -131665.31, -154408.19, -159107.11, -163130.61, 0.07, 0.00, 0.00
243, -157800.47, -146962.63, -132520.34, -136620.73, -131661.77, -154404.33, -159103.38, -163126.53, 0.07, 0.00, 0.00
244, -157798.06, -146960.23, -132518.44, -136619.02, -131659.89, -154402.52, -159101.33, -163124.28, 0.07, 0.00, 0.00
245, -157798.69, -146960.23, -132518.95, -136619.25, -131660.20, -154402.66, -159101.70, -163124.34, 0.07, 0.00, 0.00
246, -157801.50, -146962.41, -132521.50, -136621.41, -131662.66, -154404.64, -159104.22, -163126.44, 0.07, 0.03, 0.03
247, -157802.70, -146963.41, -132523.20, -136623.02, -131664.17, -154406.00, -159105.72, -163127.52, 0.07, 0.00, 0.00
248, -157800.98, -146961.94, -132522.11, -136622.27, -131663.17, -154404.86, -159104.63, -163126.27, 0.06, 0.00, 0.00
249, -157799.94, -146960.56, -132521.14, -136621.17, -131662.08, -154403.55, -159103.48, -163124.86, 0.06, 0.00, 0.00
250, -157803.59, -146963.56, -132524.58, -136624.16, -131665.31, -154406.42, -159106.75, -163127.63, 0.07, 0.00, 0.00
251, -157802.58, -146962.22, -132523.83, -136623.22, -131664.44, -154405.27, -159105.80, -163126.31, 0.07, 0.00, 0.00
252, -157798.08, -146957.78, -132520.00, -136619.58, -131660.58, -154401.38, -159101.77, -163122.09, 0.07, 0.00, 0.00
253, -157796.06, -146955.55, -132518.19, -136617.70, -131658.67, -154399.34, -159099.91, -163120.00, 0.07, 0.00, 0.00
254, -157803.05, -146961.73, -132524.94, -136624.00, -131665.20, -154405.42, -159106.50, -163126.22, 0.07, 0.00, 0.00
255, -157806.42, -146964.70, -132528.55, -136627.25, -131668.52, -154408.45, -159109.80, -163129.03, 0.06, 0.00, 0.00
0, -157801.52, -146960.03, -132524.30, -136623.16, -131664.27, -154404.23, -159105.50, -163124.39, 0.06, 0.00, 0.00
1, -157795.86, -146954.33, -132519.02, -136617.97, -131658.98, -154398.77, -159100.14, -163118.83, 0.06, 0.00, 0.00
2, -157798.48, -146956.17, -132521.39, -136620.05, -131661.19, -154400.53, -159102.30, -163120.61, 0.06, 0.00, 0.00
3, -157799.48, -146956.64, -132522.45, -136620.70, -131662.05, -154401.02, -159103.17, -163121.06, 0.06, 0.00, 0.00
4, -157796.31, -146953.53, -132519.89, -136618.28, -131659.55, -154398.31, -159100.52, -163118.16, 0.06, 0.00, 0.00
5, -157792.69, -146949.84, -132516.66, -136615.20, -131656.36, -154394.98, -159097.19, -163114.67, 0.06, 0.00, 0.00
6, -157795.84, -146952.36, -132519.63, -136617.77, -131659.08, -154397.53, -159100.09, -163117.03, 0.06, 0.00, 0.00
7, -157799.84, -146955.86, -132523.72, -136621.44, -131662.91, -154400.92, -159103.83, -163120.39, 0.06, 0.00, 0.00
8, -157795.70, -146951.63, -132519.91, -136617.80, -131659.08, -154397.03, -159099.88, -163116.30, 0.06, 0.00, 0.00
9, -157789.94, -146945.97, -132514.69, -136612.78, -131654.00, -154391.73, -159094.59, -163110.78, 0.06, 0.00, 0.00
10, -157794.48, -146949.95, -132519.05, -136616.73, -131658.14, -154395.61, -159098.86, -163114.58, 0.06, 0.00, 0.00
11, -157797.64, -146952.34, -132522.06, -136619.33, -131660.80, -154398.02, -159101.75, -163117.03, 0.06, 0.00, 0.00
12, -157795.17, -146949.75, -132520.00, -136617.34, -131658.83, -154395.73, -159099.63, -163114.58, 0.06, 0.00, 0.00
13, -157790.19, -146944.92, -132515.70, -136613.23, -131654.63, -154391.36, -159095.11, -163109.92, 0.06, 0.00, 0.00
14, -157788.38, -146942.53, -132513.91, -136611.11, -131652.58, -154389.11, -159093.05, -163107.53, 0.06, 0.00, 0.00
15, -157789.50, -146942.94, -132514.72, -136611.52, -131653.17, -154389.44, -159093.78, -163107.77, 0.06, 0.00, 0.00
16, -157792.20, -146945.48, -132517.75, -136614.64, -131656.27, -154392.25, -159096.78, -163110.36, 0.06, 0.00, 0.00
17, -157790.66, -146944.08, -132516.81, -136613.91, -131655.39, -154391.34, -159095.69, -163109.08, 0.06, 0.00, 0.00
18, -157788.88, -146942.06, -132515.31, -136612.22, -131653.63, -154389.38, -159094.02, -163107.09, 0.06, 0.00, 0.00
19, -157791.55, -146943.98, -132517.72, -136614.22, -131655.77, -154391.14, -159096.30, -163108.98, 0.06, 0.00, 0.00
20, -157790.25, -146942.36, -132516.67, -136612.94, -131654.63, -154389.69, -159094.97, -163107.33, 0.06, 0.00, 0.00
21, -157784.36, -146936.61, -132511.44, -136607.98, -131649.47, -154384.45, -159089.67, -163101.83, 0.06, 0.00, 0.00
22, -157784.45, -146936.52, -132511.75, -136608.31, -131649.64, -154384.59, -159089.92, -163101.72, 0.06, 0.00, 0.00
23, -157791.78, -146943.06, -132518.73, -136614.80, -131656.39, -154390.92, -159096.72, -163108.05, 0.06, 0.00, 0.00
24, -157792.78, -146943.63, -132520.00, -136615.73, -131657.48, -154391.73, -159097.72, -163108.72, 0.06, 0.00, 0.00
25, -157787.98, -146938.95, -132515.69, -136611.59, -131653.30, -154387.31, -159093.20, -163104.05, 0.06, 0.00, 0.00
26, -157784.98, -146935.84, -132512.95, -136608.98, -131650.58, -154384.55, -159090.41, -163100.98, 0.06, 0.00, 0.00
27, -157788.88, -146939.11, -132516.72, -136612.27, -131654.03, -154387.66, -159093.98, -163104.19, 0.06, 0.00, 0.00
28, -157792.00, -146941.72, -132519.95, -136615.20, -131657.14, -154390.36, -159097.08, -163106.81, 0.06, 0.00, 0.00
29, -157787.98, -146937.55, -132516.42, -136611.80, -131653.67, -154386.75, -159093.39, -163102.95, 0.06, 0.00, 0.00
30, -157780.53, -146930.17, -132509.56, -136604.98, -131646.73, -154379.83, -159086.39, -163095.69, 0.06, 0.00, 0.00
31, -157784.16, -146933.19, -132513.09, -136608.14, -131650.00, -154382.69, -159089.67, -163098.61, 0.06, 0.00, 0.00
32, -157787.94, -146936.41, -132516.72, -136611.48, -131653.47, -154385.66, -159093.13, -163101.81, 0.06, 0.00, 0.00
33, -157784.98, -146933.50, -132514.25, -136609.14, -131651.02, -154383.16, -159090.53, -163098.94, 0.06, 0.00, 0.00
34, -157780.98, -146929.45, -132510.88, -136605.91, -131647.56, -154379.61, -159087.00, -163095.06, 0.06, 0.00, 0.00
35, -157784.05, -146931.89, -132513.81, -136608.53, -131650.47, -154382.06, -159089.86, -163097.52, 0.06, 0.00, 0.00
36, -157787.42, -146934.59, -132517.00, -136611.31, -131653.47, -154384.66, -159092.83, -163100.20, 0.06, 0.00, 0.00
37, -157784.33, -146931.48, -132514.34, -136608.66, -131650.67, -154381.84, -159090.13, -163097.05, 0.06, 0.00, 0.00
38, -157779.30, -146926.53, -132509.89, -136604.31, -131646.11, -154377.33, -159085.45, -163092.09, 0.06, 0.00, 0.00
39, -157778.13, -146924.92, -132508.77, -136603.06, -131644.89, -154375.83, -159084.22, -163090.55, 0.06, 0.00, 0.00
40, -157785.70, -146931.73, -132516.06, -136610.02, -131652.03, -154382.48, -159091.47, -163097.30, 0.06, 0.00, 0.00
41, -157785.89, -146931.69, -132516.63, -136610.45, -131652.50, -154382.80, -159091.83, -163097.36, 0.06, 0.00, 0.00
42, -157779.89, -146925.88, -132511.19, -136605.30, -131647.20, -154377.28, -159086.20, -163091.59, 0.06, 0.00, 0.00
43, -157779.97, -146925.75, -132511.44, -136605.41, -131647.34, -154377.22, -159086.34, -163091.52, 0.06, 0.00, 0.00
44, -157782.66, -146927.72, -132513.94, -136607.42, -131649.52, -154379.00, -159088.69, -163093.39, 0.06, 0.00, 0.00
45, -157780.94, -146925.64, -132512.52, -136605.77, -131647.92, -154377.23, -159087.06, -163091.33, 0.06, 0.00, 0.00
46, -157777.20, -146922.02, -132509.42, -136602.77, -131644.78, -154374.03, -159083.86, -163087.86, 0.06, 0.00, 0.00
47, -157777.05, -146921.72, -132509.56, -136603.00, -131645.00, -154373.86, -159083.78, -163087.69, 0.06, 0.00, 0.00
48, -157781.23, -146925.05, -132513.41, -136606.48, -131648.55, -154377.14, -159087.42, -163090.92, 0.06, 0.00, 0.00
49, -157783.11, -146926.48, -132515.22, -136608.09, -131650.23, -154378.59, -159089.19, -163092.22, 0.06, 0.00, 0.00
50, -157780.31, -146923.73, -132513.05, -136606.02, -131648.06, -154376.28, -159086.92, -163089.72, 0.06, 0.00, 0.00
51, -157776.42, -146919.84, -132509.67, -136602.70, -131644.64, -154372.77, -159083.38, -163085.94, 0.06, 0.00, 0.00
52, -157777.19, -146919.94, -132510.22, -136602.86, -131644.97, -154372.70, -159083.70, -163085.83, 0.06, 0.00, 0.00
53, -157780.05, -146922.22, -132512.98, -136605.28, -131647.66, -154374.94, -159086.44, -163088.02, 0.06, 0.00, 0.00
54, -157777.98, -146920.11, -132511.48, -136603.86, -131646.11, -154373.25, -159084.69, -163086.13, 0.06, 0.00, 0.00
55, -157773.34, -146915.50, -132507.38, -136599.94, -131642.06, -154369.17, -159080.41, -163081.70, 0.06, 0.00, 0.00
56, -157775.13, -146916.67, -132509.05, -136601.27, -131643.48, -154370.28, -159081.88, -163082.91, 0.06, 0.00, 0.00
57, -157777.89, -146918.81, -132511.73, -136603.64, -131645.95, -154372.41, -159084.52, -163085.00, 0.06, 0.00, 0.00
58, -157773.94, -146914.88, -132508.25, -136600.20, -131642.61, -154368.73, -159080.89, -163081.08, 0.06, 0.00, 0.00
59, -157769.78, -146910.84, -132504.63, -136596.69, -131638.97, -154365.05, -159077.03, -163077.09, 0.06, 0.00, 0.00
60, -157770.75, -146911.28, -132505.55, -136597.31, -131639.70, -154365.55, -159077.81, -163077.47, 0.06, 0.00, 0.00
61, -157776.91, -146916.69, -132511.50, -136602.88, -131645.44, -154370.89, -159083.70, -163082.77, 0.06, 0.00, 0.00
62, -157774.05, -146913.77, -132509.11, -136600.47, -131643.03, -154368.16, -159081.06, -163079.91, 0.06, 0.00, 0.00
63, -157768.91, -146908.83, -132504.64, -136596.16, -131638.53, -154363.63, -159076.44, -163075.08, 0.06, 0.00, 0.00
64, -157768.33, -146907.81, -132504.05, -136595.42, -131637.84, -154362.81, -159075.80, -163074.13, 0.06, 0.00, 0.00
65, -157773.05, -146911.59, -132508.45, -136599.48, -131641.95, -154366.53, -159080.09, -163077.88, 0.06, 0.00, 0.00
66, -157774.13, -146912.36, -132509.77, -136600.72, -131643.09, -154367.53, -159081.22, -163078.70, 0.06, 0.00, 0.00
67, -157767.69, -146906.20, -132504.11, -136595.06, -131637.48, -154361.83, -159075.42, -163072.67, 0.06, 0.00, 0.00
68, -157764.89, -146903.28, -132501.63, -136592.48, -131634.97, -154359.00, -159072.80, -163069.73, 0.06, 0.00, 0.00
69, -157769.69, -146907.27, -132506.09, -136596.48, -131639.13, -154362.84, -159077.11, -163073.61, 0.06, 0.00, 0.00
70, -157768.98, -146906.03, -132505.47, -136595.69, -131638.42, -154361.81, -159076.28, -163072.48, 0.06, 0.00, 0.00
71, -157765.47, -146902.67, -132502.56, -136593.03, -131635.61, -154358.81, -159073.16, -163069.31, 0.06, 0.00, 0.00
72, -157763.50, -146900.67, -132500.89, -136591.45, -131634.02, -154356.97, -159071.45, -163067.34, 0.06, 0.00, 0.00
73, -157768.05, -146904.33, -132505.20, -136595.31, -131638.00, -154360.56, -159075.64, -163070.98, 0.06, 0.00, 0.00
74, -157767.59, -146903.39, -132504.83, -136594.59, -131637.39, -154359.75, -159075.02, -163070.00, 0.06, 0.00, 0.00
75, -157765.94, -146901.97, -132503.91, -136593.67, -131636.50, -154358.73, -159073.89, -163068.58, 0.06, 0.00, 0.00
76, -157763.13, -146899.13, -132501.56, -136591.53, -131634.20, -154356.20, -159071.48, -163065.83, 0.06, 0.00, 0.00
77, -157768.11, -146903.53, -132506.19, -136595.95, -131638.66, -154360.38, -159076.17, -163070.14, 0.06, 0.00, 0.00
78, -157770.44, -146905.22, -132508.45, -136597.89, -131640.75, -154362.11, -159078.20, -163071.81, 0.06, 0.00, 0.00
79, -157767.02, -146901.69, -132505.56, -136594.97, -131637.94, -154358.92, -159075.17, -163068.31, 0.06, 0.00, 0.00
80, -157762.09, -146896.78, -132501.16, -136590.77, -131633.63, -154354.48, -159070.59, -163063.70, 0.06, 0.00, 0.00
81, -157763.45, -146897.61, -132502.45, -136591.73, -131634.69, -154355.27, -159071.55, -163064.47, 0.06, 0.00, 0.00
82, -157766.86, -146900.38, -132505.73, -136594.61, -131637.64, -154357.92, -159074.72, -163067.03, 0.06, 0.00, 0.00
83, -157762.42, -146895.80, -132501.72, -136590.61, -131633.64, -154353.77, -159070.70, -163062.56, 0.06, 0.00, 0.00
84, -157756.13, -146889.67, -132496.16, -136585.19, -131628.08, -154348.14, -159064.86, -163056.59, 0.06, 0.00, 0.00
85, -157757.73, -146890.88, -132497.83, -136586.61, -131629.58, -154349.50, -159066.34, -163057.77, 0.06, 0.00, 0.00
86, -157760.00, -146892.39, -132499.84, -136588.33, -131631.39, -154350.95, -159068.31, -163059.25, 0.06, 0.00, 0.00
87, -157759.81, -146892.00, -132500.06, -136588.48, -131631.50, -154350.72, -159068.28, -163058.94, 0.06, 0.00, 0.00
88, -157754.45, -146886.81, -132495.22, -136583.91, -131626.73, -154345.97, -159063.33, -163053.75, 0.06, 0.00, 0.00
89, -157753.84, -146885.95, -132494.78, -136583.25, -131626.13, -154345.11, -159062.72, -163052.75, 0.06, 0.00, 0.00
90, -157758.42, -146889.64, -132499.19, -136587.08, -131630.17, -154348.69, -159066.92, -163056.58, 0.06, 0.00, 0.00
91, -157756.97, -146887.70, -132497.81, -136585.61, -131628.72, -154346.97, -159065.48, -163054.73, 0.06, 0.00, 0.00
92, -157753.44, -146884.30, -132494.94, -136582.86, -131625.81, -154344.02, -159062.42, -163051.45, 0.06, 0.00, 0.00
93, -157753.02, -146883.67, -132494.75, -136582.63, -131625.58, -154343.63, -159062.03, -163050.88, 0.06, 0.00, 0.00
94, -157758.70, -146888.66, -132500.17, -136587.61, -131630.77, -154348.45, -159067.38, -163055.72, 0.06, 0.00, 0.00
95, -157758.47, -146887.97, -132500.08, -136587.28, -131630.58, -154347.94, -159067.09, -163055.13, 0.06, 0.00, 0.00
96, -157755.33, -146884.95, -132497.58, -136584.95, -131628.08, -154345.34, -159064.47, -163052.19, 0.06, 0.00, 0.00
97, -157752.61, -146882.22, -132495.23, -136582.72, -131625.75, -154342.75, -159062.08, -163049.47, 0.06, 0.00, 0.00
98, -157755.48, -146884.42, -132497.77, -136584.83, -131628.22, -154344.83, -159064.42, -163051.45, 0.06, 0.00, 0.00
99, -157757.69, -146886.16, -132500.11, -136586.75, -131630.30, -154346.75, -159066.45, -163053.11, 0.06, 0.00, 0.00
100, -157754.05, -146882.53, -132497.11, -136583.86, -131627.19, -154343.59, -159063.28, -163049.72, 0.06, 0.00, 0.00
101, -157753.17, -146881.63, -132496.69, -136583.66, -131626.83, -154342.95, -159062.70, -163049.00, 0.06, 0.00, 0.00
102, -157755.30, -146883.02, -132498.66, -136585.20, -131628.56, -154344.31, -159064.55, -163050.41, 0.06, 0.00, 0.00
103, -157759.48, -146886.56, -132502.67, -136588.88, -131632.41, -154347.81, -159068.47, -163053.78, 0.07, 0.00, 0.00
104, -157753.94, -146881.09, -132497.72, -136583.97, -131627.50, -154342.64, -159063.33, -163048.39, 0.07, 0.02, 0.06
105, -157749.94, -146877.23, -132494.36, -136580.75, -131624.17, -154339.27, -159059.88, -163044.73, 0.07, 0.00, 0.00
106, -157751.25, -146878.05, -132495.58, -136581.78, -131625.13, -154340.06, -159060.97, -163045.55, 0.06, 0.00, 0.00
107, -157752.77, -146878.89, -132496.91, -136582.72, -131626.16, -154340.75, -159062.19, -163046.22, 0.06, 0.00, 0.00
108, -157751.16, -146877.08, -132495.70, -136581.45, -131624.97, -154339.38, -159060.84, -163044.59, 0.06, 0.00, 0.00
109, -157747.30, -146873.39, -132492.39, -136578.39, -131621.73, -154336.08, -159057.42, -163040.97, 0.07, 0.00, 0.00
110, -157749.16, -146874.78, -132494.30, -136580.03, -131623.52, -154337.53, -159059.08, -163042.38, 0.07, 0.00, 0.00
111, -157755.44, -146880.39, -132500.44, -136585.72, -131629.34, -154342.97, -159064.98, -163047.83, 0.07, 0.00, 0.00
112, -157753.44, -146878.20, -132498.72, -136584.05, -131627.61, -154340.91, -159063.20, -163045.67, 0.07, 0.00, 0.00
113, -157749.31, -146874.17, -132495.34, -136580.73, -131624.14, -154337.52, -159059.64, -163041.86, 0.07, 0.00, 0.00
114, -157749.20, -146873.84, -132495.34, -136580.64, -131624.09, -154337.31, -159059.56, -163041.52, 0.07, 0.00, 0.00
115, -157751.03, -146874.92, -132496.88, -136581.81, -131625.53, -154338.14, -159061.00, -163042.47, 0.07, 0.00, 0.00
116, -157748.34, -146871.83, -132494.41, -136579.14, -131622.91, -154335.22, -159058.36, -163039.47, 0.07, 0.00, 0.00
117, -157743.72, -146867.25, -132490.47, -136575.33, -131618.94, -154331.23, -159054.16, -163035.05, 0.07, 0.00, 0.00
118, -157742.16, -146865.48, -132489.14, -136574.00, -131617.59, -154329.67, -159052.70, -163033.27, 0.07, 0.00, 0.00
119, -157746.20, -146868.72, -132492.89, -136577.45, -131621.11, -154332.80, -159056.33, -163036.45, 0.07, 0.00, 0.00
120, -157746.63, -146868.77, -132493.45, -136577.83, -131621.48, -154332.84, -159056.78, -163036.56, 0.07, 0.00, 0.00
121, -157742.31, -146864.64, -132489.84, -136574.31, -131617.84, -154329.06, -159052.92, -163032.55, 0.07, 0.00, 0.00
122, -157740.06, -146862.33, -132488.03, -136572.58, -131616.05, -154327.19, -159050.89, -163030.33, 0.07, 0.00, 0.00
123, -157741.42, -146863.08, -132489.09, -136573.20, -131616.97, -154327.75, -159051.83, -163030.89, 0.07, 0.00, 0.00
124, -157741.11, -146862.11, -132488.69, -136572.44, -131616.44, -154326.81, -159051.25, -163029.86, 0.07, 0.00, 0.00
125, -157737.44, -146858.42, -132485.58, -136569.47, -131613.34, -154323.64, -159048.03, -163026.33, 0.07, 0.00, 0.00
126, -157735.45, -146856.50, -132484.19, -136568.14, -131611.92, -154322.05, -159046.48, -163024.61, 0.07, 0.00, 0.00
127, -157739.50, -146859.92, -132488.11, -136571.61, -131615.61, -154325.41, -159050.27, -163027.94, 0.07, 0.00, 0.00
128, -157744.23, -146864.14, -132492.84, -136576.11, -131620.05, -154329.53, -159054.88, -163032.02, 0.07, 0.00, 0.00
129, -157742.41, -146862.13, -132491.39, -136574.70, -131618.67, -154327.88, -159053.27, -163030.06, 0.07, 0.00, 0.00
130, -157735.94, -146855.77, -132485.64, -136569.11, -131612.86, -154322.14, -159047.34, -163023.97, 0.07, 0.00, 0.00
131, -157734.95, -146854.33, -132484.53, -136567.81, -131611.58, -154320.59, -159046.05, -163022.44, 0.07, 0.00, 0.00
132, -157740.70, -146859.41, -132490.05, -136572.81, -131616.81, -154325.52, -159051.34, -163027.41, 0.07, 0.00, 0.00
133, -157741.06, -146859.50, -132490.70, -136573.42, -131617.55, -154325.92, -159051.97, -163027.61, 0.07, 0.00, 0.00
134, -157736.67, -146855.14, -132486.89, -136569.88, -131613.89, -154322.09, -159047.98, -163023.50, 0.07, 0.00, 0.00
135, -157736.91, -146855.06, -132487.30, -136570.09, -131614.02, -154322.16, -159048.17, -163023.41, 0.07, 0.00, 0.00
136, -157737.75, -146855.27, -132487.95, -136570.31, -131614.47, -154322.11, -159048.73, -163023.41, 0.07, 0.00, 0.00
137, -157734.73, -146852.00, -132485.20, -136567.61, -131611.73, -154319.03, -159045.89, -163020.23, 0.07, 0.00, 0.00
138, -157728.92, -146846.28, -132480.06, -136562.61, -131606.55, -154313.83, -159040.53, -163014.59, 0.07, 0.00, 0.00
139, -157728.19, -146845.19, -132479.45, -136561.91, -131605.86, -154312.92, -159039.78, -163013.55, 0.07, 0.00, 0.00
140, -157732.02, -146848.36, -132483.05, -136565.06, -131609.22, -154315.88, -159043.25, -163016.59, 0.07, 0.00, 0.00
141, -157731.88, -146847.88, -132483.14, -136564.89, -131609.14, -154315.56, -159043.19, -163016.05, 0.07, 0.00, 0.00
142, -157729.81, -146845.95, -132481.78, -136563.70, -131607.72, -154314.05, -159041.59, -163014.34, 0.07, 0.00, 0.00
143, -157728.92, -146844.88, -132481.11, -136563.16, -131607.09, -154313.31, -159040.81, -163013.41, 0.07, 0.00, 0.00
144, -157732.88, -146848.03, -132484.80, -136566.38, -131610.48, -154316.23, -159044.30, -163016.45, 0.07, 0.00, 0.00
145, -157735.41, -146850.11, -132487.38, -136568.64, -131612.86, -154318.30, -159046.73, -163018.52, 0.07, 0.00, 0.00
146, -157731.81, -146846.73, -132484.44, -136565.91, -131610.02, -154315.41, -159043.75, -163015.22, 0.07, 0.00, 0.00
147, -157731.47, -146846.28, -132484.58, -136566.00, -131610.13, -154315.30, -159043.70, -163014.83, 0.07, 0.00, 0.00
148, -157733.86, -146847.95, -132486.77, -136567.83, -131612.03, -154316.91, -159045.67, -163016.47, 0.07, 0.00, 0.00
149, -157732.39, -146845.88, -132485.20, -136566.06, -131610.36, -154314.89, -159043.97, -163014.44, 0.07, 0.00, 0.00
150, -157730.91, -146844.47, -132484.39, -136565.22, -131609.45, -154313.83, -159042.88, -163013.09, 0.07, 0.00, 0.00
151, -157730.05, -146843.64, -132484.11, -136564.97, -131609.13, -154313.39, -159042.45, -163012.41, 0.07, 0.00, 0.00
152, -157731.53, -146844.63, -132485.36, -136566.06, -131610.36, -154314.22, -159043.63, -163013.25, 0.07, 0.00, 0.00
153, -157732.03, -146844.27, -132485.56, -136565.95, -131610.39, -154313.88, -159043.70, -163012.92, 0.07, 0.00, 0.00
154, -157729.27, -146841.50, -132483.39, -136563.70, -131608.09, -154311.44, -159041.28, -163010.17, 0.07, 0.00, 0.00
155, -157726.53, -146838.94, -132481.31, -136561.89, -131606.19, -154309.48, -159039.19, -163007.80, 0.07, 0.00, 0.00
156, -157728.34, -146840.27, -132483.08, -136563.41, -131607.73, -154310.73, -159040.80, -163009.03, 0.07, 0.00, 0.00
157, -157732.59, -146843.84, -132487.14, -136567.02, -131611.52, -154314.22, -159044.61, -163012.47, 0.07, 0.00, 0.00
158, -157730.27, -146841.39, -132485.20, -136565.05, -131609.55, -154312.02, -159042.58, -163010.13, 0.07, 0.00, 0.00
159, -157726.59, -146837.88, -132482.27, -136562.20, -131606.70, -154308.97, -159039.45, -163006.75, 0.07, 0.00, 0.00
160, -157727.05, -146837.97, -132482.73, -136562.58, -131607.05, -154309.11, -159039.86, -163006.78, 0.06, 0.00, 0.00
161, -157729.02, -146839.09, -132484.31, -136563.75, -131608.45, -154310.09, -159041.27, -163007.88, 0.06, 0.00, 0.00
162, -157728.25, -146838.19, -132483.95, -136563.23, -131607.89, -154309.33, -159040.81, -163007.00, 0.06, 0.00, 0.00
163, -157724.16, -146834.22, -132480.47, -136559.92, -131604.45, -154305.84, -159037.16, -163003.16, 0.06, 0.00, 0.00
164, -157723.14, -146832.89, -132479.59, -136559.08, -131603.58, -154304.72, -159036.17, -163001.86, 0.07, 0.00, 0.00
165, -157726.23, -146835.27, -132482.58, -136561.47, -131606.22, -154306.92, -159038.92, -163004.14, 0.07, 0.00, 0.00
166, -157726.52, -146835.13, -132482.89, -136561.80, -131606.47, -154306.97, -159039.19, -163004.05, 0.06, 0.00, 0.00
167, -157723.42, -146832.11, -132480.50, -136559.56, -131604.09, -154304.44, -159036.59, -163001.23, 0.06, 0.00, 0.00
168, -157721.56, -146829.98, -132479.03, -136557.98, -131602.50, -154302.63, -159034.84, -162999.22, 0.06, 0.00, 0.00
169, -157725.42, -146833.20, -132482.66, -136561.05, -131605.86, -154305.70, -159038.20, -163002.33, 0.06, 0.00, 0.00
170, -157726.78, -146834.17, -132484.02, -136562.27, -131607.06, -154306.69, -159039.56, -163003.20, 0.06, 0.00, 0.00
171, -157721.25, -146828.66, -132478.97, -136557.33, -131602.03, -154301.53, -159034.48, -162997.72, 0.06, 0.00, 0.00
172, -157717.70, -146825.05, -132475.97, -136554.38, -131599.05, -154298.33, -159031.25, -162994.38, 0.06, 0.00, 0.00
173, -157722.67, -146829.25, -132480.81, -136558.81, -131603.63, -154302.61, -159035.83, -162998.59, 0.06, 0.02, 0.03
174, -157726.55, -146832.66, -132484.64, -136562.30, -131607.38, -154305.95, -159039.50, -163001.83, 0.06, 0.00, 0.00
175, -157724.63, -146830.70, -132483.13, -136560.97, -131605.91, -154304.33, -159037.95, -162999.91, 0.06, 0.00, 0.00
176, -157719.17, -146825.34, -132478.31, -136556.28, -131601.02, -154299.39, -159032.95, -162994.75, 0.06, 0.00, 0.00
177, -157721.75, -146827.39, -132480.81, -136558.41, -131603.25, -154301.38, -159035.31, -162996.69, 0.06, 0.00, 0.00
178, -157725.33, -146830.30, -132484.28, -136561.39, -131606.48, -154304.23, -159038.58, -162999.63, 0.06, 0.00, 0.00
179, -157723.66, -146828.63, -132483.17, -136560.39, -131605.38, -154302.84, -159037.19, -162998.03, 0.06, 0.00, 0.00
180, -157718.73, -146823.78, -132478.77, -136556.28, -131601.08, -154298.38, -159032.70, -162993.30, 0.06, 0.00, 0.00
181, -157719.36, -146823.78, -132479.34, -136556.55, -131601.39, -154298.48, -159033.08, -162993.39, 0.06, 0.00, 0.00
182, -157722.31, -146825.91, -132481.95, -136558.73, -131603.84, -154300.55, -159035.58, -162995.42, 0.06, 0.00, 0.00
183, -157719.80, -146823.23, -132479.88, -136556.45, -131601.72, -154298.13, -159033.28, -162992.78, 0.06, 0.00, 0.00
184, -157714.03, -146817.67, -132474.84, -136551.66, -131596.72, -154292.92, -159028.05, -162987.28, 0.06, 0.00, 0.00
185, -157714.84, -146818.23, -132475.86, -136552.66, -131597.59, -154293.78, -159028.92, -162987.84, 0.06, 0.00, 0.00
186, -157720.92, -146823.67, -132481.58, -136558.02, -131603.13, -154298.94, -159034.63, -162993.08, 0.06, 0.00, 0.00
187, -157720.36, -146822.66, -132481.02, -136557.36, -131602.53, -154298.16, -159034.05, -162992.09, 0.06, 0.00, 0.00
188, -157711.38, -146813.73, -132472.70, -136549.13, -131594.22, -154289.66, -159025.55, -162983.34, 0.06, 0.00, 0.00
189, -157711.91, -146814.19, -132473.55, -136549.94, -131594.97, -154290.20, -159026.33, -162983.80, 0.06, 0.00, 0.00
190, -157716.03, -146817.56, -132477.41, -136553.38, -131598.64, -154293.44, -159029.95, -162987.03, 0.06, 0.00, 0.00
191, -157714.27, -146815.31, -132475.72, -136551.47, -131596.83, -154291.36, -159028.09, -162984.80, 0.06, 0.00, 0.00
192, -157711.75, -146812.95, -132473.89, -136549.70, -131594.97, -154289.34, -159026.17, -162982.55, 0.06, 0.00, 0.00
193, -157709.98, -146811.08, -132472.59, -136548.50, -131593.66, -154287.94, -159024.72, -162980.89, 0.06, 0.00, 0.00
194, -157713.08, -146813.53, -132475.59, -136550.95, -131596.27, -154290.20, -159027.38, -162983.14, 0.06, 0.00, 0.00
195, -157715.63, -146815.55, -132478.06, -136553.17, -131598.63, -154292.23, -159029.69, -162985.19, 0.06, 0.00, 0.00
196, -157712.08, -146811.95, -132475.05, -136550.28, -131595.64, -154289.11, -159026.53, -162981.78, 0.06, 0.00, 0.00
197, -157707.00, -146806.94, -132470.45, -136545.89, -131591.13, -154284.45, -159021.95, -162976.86, 0.06, 0.00, 0.00
198, -157710.59, -146809.78, -132473.78, -136548.88, -131594.23, -154287.20, -159025.19, -162979.58, 0.06, 0.00, 0.00
199, -157715.45, -146814.05, -132478.50, -136553.27, -131598.81, -154291.50, -159029.70, -162983.81, 0.06, 0.00, 0.00
200, -157710.17, -146808.73, -132473.70, -136548.45, -131593.98, -154286.44, -159024.66, -162978.56, 0.06, 0.00, 0.00
201, -157706.17, -146804.83, -132470.38, -136545.27, -131590.61, -154283.00, -159021.25, -162974.86, 0.06, 0.00, 0.00
202, -157708.36, -146806.44, -132472.45, -136547.19, -131592.47, -154284.56, -159023.22, -162976.52, 0.06, 0.00, 0.00
203, -157710.27, -146807.66, -132474.22, -136548.52, -131593.97, -154285.61, -159024.78, -162977.52, 0.06, 0.00, 0.00
204, -157707.94, -146805.30, -132472.44, -136546.67, -131592.11, -154283.63, -159022.84, -162975.28, 0.06, 0.00, 0.00
205, -157702.59, -146799.97, -132467.63, -136542.13, -131587.42, -154278.81, -159018.00, -162970.16, 0.06, 0.00, 0.00
206, -157705.16, -146802.25, -132470.31, -136544.66, -131589.91, -154281.09, -159020.44, -162972.39, 0.06, 0.00, 0.00
207, -157710.30, -146806.67, -132475.23, -136549.11, -131594.59, -154285.41, -159025.23, -162976.67, 0.06, 0.00, 0.00
208, -157708.22, -146804.39, -132473.48, -136547.23, -131592.69, -154283.30, -159023.25, -162974.41, 0.06, 0.00, 0.00
209, -157703.70, -146799.97, -132469.64, -136543.47, -131588.89, -154279.31, -159019.17, -162970.23, 0.06, 0.00, 0.00
210, -157702.80, -146798.67, -132468.75, -136542.47, -131588.06, -154278.28, -159018.22, -162968.94, 0.06, 0.00, 0.00
211, -157706.64, -146801.72, -132472.33, -136545.63, -131591.44, -154281.14, -159021.66, -162971.91, 0.06, 0.00, 0.00
212, -157708.86, -146803.70, -132474.81, -136547.92, -131593.77, -154283.27, -159023.98, -162973.84, 0.06, 0.00, 0.00
213, -157706.38, -146801.25, -132472.86, -136546.17, -131591.89, -154281.33, -159021.88, -162971.64, 0.06, 0.00, 0.00
214, -157703.31, -146798.03, -132470.09, -136543.47, -131589.13, -154278.28, -159019.00, -162968.48, 0.06, 0.00, 0.00
215, -157706.45, -146800.59, -132473.06, -136546.06, -131591.88, -154280.61, -159021.72, -162970.78, 0.06, 0.00, 0.00
216, -157709.08, -146802.66, -132475.70, -136548.45, -131594.27, -154282.84, -159024.20, -162972.94, 0.06, 0.00, 0.00
217, -157705.77, -146799.33, -132473.02, -136545.80, -131591.48, -154279.95, -159021.45, -162969.77, 0.06, 0.00, 0.00
218, -157701.36, -146794.98, -132469.16, -136542.11, -131587.67, -154276.03, -159017.44, -162965.42, 0.06, 0.00, 0.00
219, -157703.55, -146796.50, -132470.98, -136543.66, -131589.36, -154277.45, -159019.25, -162966.81, 0.06, 0.00, 0.00
220, -157703.64, -146795.88, -132470.97, -136543.34, -131589.16, -154276.92, -159019.05, -162966.27, 0.06, 0.00, 0.00
221, -157701.30, -146793.48, -132469.31, -136541.69, -131587.27, -154274.89, -159016.98, -162964.08, 0.06, 0.00, 0.00
222, -157698.23, -146790.66, -132466.80, -136539.30, -131584.92, -154272.30, -159014.42, -162961.28, 0.06, 0.00, 0.00
223, -157700.31, -146792.11, -132468.69, -136540.81, -131586.70, -154273.67, -159016.14, -162962.66, 0.06, 0.00, 0.00
224, -157703.83, -146795.02, -132472.17, -136543.92, -131589.92, -154276.58, -159019.41, -162965.45, 0.06, 0.00, 0.00
225, -157699.91, -146790.97, -132468.66, -136540.52, -131586.48, -154272.88, -159015.83, -162961.58, 0.06, 0.00, 0.00
226, -157696.09, -146787.23, -132465.47, -136537.42, -131583.28, -154269.61, -159012.52, -162958.00, 0.06, 0.00, 0.00
227, -157699.86, -146790.53, -132469.20, -136540.92, -131586.80, -154272.86, -159016.05, -162961.17, 0.06, 0.00, 0.00
228, -157703.42, -146793.31, -132472.55, -136543.88, -131589.88, -154275.59, -159019.22, -162964.02, 0.06, 0.00, 0.00
229, -157699.75, -146789.42, -132469.20, -136540.45, -131586.55, -154272.03, -159015.69, -162960.27, 0.06, 0.00, 0.00
230, -157693.89, -146783.77, -132464.09, -136535.52, -131581.42, -154266.84, -159010.44, -162954.69, 0.06, 0.00, 0.00
231, -157694.77, -146784.38, -132465.08, -136536.45, -131582.38, -154267.47, -159011.28, -162955.16, 0.06, 0.00, 0.00
232, -157698.06, -146786.83, -132468.14, -136539.06, -131585.14, -154269.83, -159014.19, -162957.59, 0.06, 0.00, 0.00
233, -157695.53, -146784.03, -132465.84, -136536.72, -131582.69, -154267.20, -159011.75, -162954.73, 0.06, 0.00, 0.00
234, -157693.03, -146781.70, -132464.02, -136535.00, -131580.95, -154265.39, -159009.77, -162952.58, 0.06, 0.00, 0.00
235, -157691.70, -146780.23, -132463.08, -136533.84, -131579.89, -154263.95, -159008.56, -162951.16, 0.06, 0.00, 0.00
236, -157697.19, -146784.89, -132468.09, -136538.58, -131584.78, -154268.50, -159013.66, -162955.70, 0.06, 0.00, 0.00
237, -157697.03, -146784.38, -132468.06, -136538.44, -131584.56, -154268.09, -159013.41, -162955.09, 0.06, 0.00, 0.00
238, -157691.75, -146779.03, -132463.41, -136533.88, -131579.95, -154263.28, -159008.53, -162950.05, 0.06, 0.00, 0.00
239, -157689.11, -146776.38, -132461.16, -136531.61, -131577.72, -154260.88, -159006.19, -162947.41, 0.06, 0.00, 0.00
240, -157691.84, -146778.47, -132463.67, -136533.72, -131580.00, -154262.75, -159008.56, -162949.38, 0.06, 0.00, 0.00
241, -157692.98, -146779.14, -132464.88, -136534.59, -131581.00, -154263.55, -159009.56, -162949.95, 0.06, 0.00, 0.00
242, -157690.02, -146776.17, -132462.45, -136532.27, -131578.53, -154260.98, -159006.97, -162947.09, 0.06, 0.00, 0.00
243, -157687.13, -146773.27, -132460.13, -136530.17, -131576.16, -154258.53, -159004.52, -162944.45, 0.06, 0.00, 0.00
244, -157688.59, -146774.09, -132461.42, -136530.98, -131577.27, -154259.17, -159005.64, -162945.16, 0.06, 0.00, 0.00
245, -157690.03, -146774.92, -132462.73, -136531.92, -131578.48, -154260.00, -159006.86, -162945.91, 0.06, 0.00, 0.00
246, -157687.23, -146772.14, -132460.50, -136529.81, -131576.17, -154257.63, -159004.52, -162943.30, 0.06, 0.00, 0.00
247, -157681.67, -146766.58, -132455.52, -136524.97, -131571.23, -154252.56, -158999.38, -162937.97, 0.06, 0.00, 0.00
248, -157685.25, -146769.50, -132458.91, -136528.08, -131574.45, -154255.48, -159002.61, -162940.88, 0.06, 0.00, 0.00
249, -157691.64, -146775.31, -132465.27, -136534.02, -131580.53, -154261.16, -159008.78, -162946.53, 0.06, 0.00, 0.00
250, -157687.06, -146770.56, -132461.00, -136529.80, -131576.22, -154256.73, -159004.45, -162941.84, 0.06, 0.00, 0.00
251, -157681.22, -146764.72, -132455.77, -136524.66, -131571.11, -154251.44, -158999.00, -162936.30, 0.06, 0.00, 0.00
252, -157682.31, -146765.38, -132456.86, -136525.48, -131572.02, -154252.11, -158999.84, -162936.88, 0.06, 0.00, 0.00
253, -157684.84, -146767.22, -132459.16, -136527.41, -131574.13, -154253.72, -159002.02, -162938.59, 0.06, 0.00, 0.00
254, -157686.66, -146768.86, -132461.31, -136529.50, -131576.25, -154255.66, -159004.19, -162940.23, 0.06, 0.00, 0.00
255, -157684.00, -146766.33, -132459.23, -136527.64, -131574.23, -154253.58, -159001.97, -162937.86, 0.06, 0.00, 0.00
0, -157681.52, -146763.66, -132456.92, -136525.28, -131571.75, -154251.00, -158999.52, -162935.14, 0.06, 0.00, 0.00
1, -157684.09, -146765.38, -132459.19, -136527.22, -131573.73, -154252.61, -159001.61, -162936.81, 0.06, 0.00, 0.00
2, -157681.50, -146762.39, -132456.81, -136524.70, -131571.33, -154249.88, -158999.00, -162933.86, 0.06, 0.00, 0.00
3, -157677.61, -146758.78, -132453.73, -136521.70, -131568.27, -154246.64, -158995.73, -162930.28, 0.06, 0.00, 0.00
4, -157675.28, -146756.25, -132451.77, -136519.73, -131566.14, -154244.38, -158993.61, -162927.88, 0.06, 0.00, 0.00
5, -157680.73, -146760.91, -132456.86, -136524.45, -131571.03, -154248.91, -158998.55, -162932.45, 0.06, 0.00, 0.00
6, -157682.45, -146762.16, -132458.72, -136526.00, -131572.78, -154250.28, -159000.16, -162933.73, 0.06, 0.00, 0.00
7, -157678.34, -146758.17, -132455.20, -136522.59, -131569.27, -154246.72, -158996.47, -162929.84, 0.06, 0.00, 0.00
8, -157677.17, -146756.94, -132454.33, -136521.86, -131568.39, -154245.84, -158995.58, -162928.75, 0.06, 0.00, 0.00
9, -157679.58, -146758.70, -132456.52, -136523.69, -131570.44, -154247.50, -158997.70, -162930.39, 0.06, 0.00, 0.00
10, -157679.27, -146757.80, -132456.30, -136523.13, -131570.05, -154246.59, -158997.25, -162929.53, 0.06, 0.00, 0.00
11, -157675.70, -146754.16, -132453.28, -136520.19, -131567.03, -154243.48, -158994.09, -162926.05, 0.06, 0.00, 0.00
12, -157673.80, -146752.31, -132452.03, -136518.89, -131565.67, -154241.94, -158992.53, -162924.30, 0.06, 0.00, 0.00
13, -157676.39, -146754.33, -132454.52, -136520.97, -131567.81, -154243.75, -158994.75, -162926.17, 0.06, 0.00, 0.00
14, -157678.36, -146755.64, -132456.33, -136522.44, -131569.38, -154245.05, -158996.42, -162927.38, 0.06, 0.00, 0.00
15, -157676.31, -146753.48, -132454.63, -136520.97, -131567.73, -154243.27, -158994.70, -162925.34, 0.06, 0.00, 0.00
16, -157672.17, -146749.48, -132451.16, -136517.64, -131564.23, -154239.70, -158991.02, -162921.45, 0.06, 0.00, 0.00
17, -157674.92, -146751.89, -132453.95, -136520.11, -131566.86, -154242.05, -158993.66, -162923.77, 0.06, 0.00, 0.00
18, -157679.91, -146756.20, -132458.73, -136524.45, -131571.44, -154246.28, -158998.28, -162927.92, 0.06, 0.00, 0.00
19, -157678.78, -146754.89, -132458.00, -136523.64, -131570.72, -154245.30, -158997.44, -162926.78, 0.06, 0.00, 0.00
20, -157675.25, -146751.36, -132455.00, -136520.97, -131567.92, -154242.31, -158994.44, -162923.47, 0.06, 0.00, 0.00
21, -157675.28, -146750.89, -132455.05, -136520.83, -131567.77, -154241.92, -158994.33, -162923.14, 0.06, 0.00, 0.00
22, -157678.08, -146753.13, -132457.78, -136523.09, -131570.20, -154243.95, -158996.92, -162925.19, 0.06, 0.00, 0.00
23, -157676.55, -146751.47, -132456.48, -136521.75, -131568.89, -154242.39, -158995.47, -162923.45, 0.06, 0.00, 0.00
24, -157671.13, -146746.11, -132451.66, -136517.16, -131564.17, -154237.56, -158990.52, -162918.27, 0.06, 0.00, 0.00
25, -157669.78, -146744.52, -132450.59, -136515.98, -131562.97, -154236.22, -158989.27, -162916.78, 0.06, 0.00, 0.00
26, -157674.09, -146748.19, -132454.73, -136519.58, -131566.70, -154239.64, -158993.23, -162920.34, 0.07, 0.00, 0.00
27, -157672.73, -146746.42, -132453.50, -136518.27, -131565.50, -154238.09, -158991.81, -162918.69, 0.07, 0.00, 0.00
28, -157666.94, -146740.69, -132448.44, -136513.30, -131560.31, -154232.98, -158986.55, -162913.05, 0.07, 0.00, 0.00
29, -157666.94, -146740.52, -132448.75, -136513.50, -131560.52, -154232.98, -158986.67, -162912.89, 0.06, 0.00, 0.00
30, -157671.75, -146744.58, -132453.22, -136517.56, -131564.86, -154236.83, -158990.95, -162916.86, 0.07, 0.00, 0.00
31, -157672.44, -146744.94, -132453.92, -136518.14, -131565.53, -154237.17, -158991.66, -162917.03, 0.07, 0.00, 0.00
32, -157668.80, -146741.30, -132450.88, -136515.28, -131562.52, -154234.05, -158988.52, -162913.56, 0.07, 0.02, 0.06
33, -157666.11, -146738.58, -132448.67, -136513.08, -131560.27, -154231.61, -158986.03, -162910.92, 0.07, 0.00, 0.00
34, -157670.31, -146742.14, -132452.70, -136516.78, -131563.97, -154235.06, -158989.89, -162914.39, 0.07, 0.00, 0.00
35, -157673.94, -146745.05, -132456.23, -136520.00, -131567.28, -154238.08, -158993.34, -162917.30, 0.07, 0.00, 0.00
36, -157668.16, -146739.33, -132451.00, -136514.77, -131562.13, -154232.70, -158987.94, -162911.67, 0.07, 0.00, 0.00
37, -157662.78, -146734.03, -132446.17, -136510.09, -131557.38, -154227.81, -158983.03, -162906.42, 0.07, 0.00, 0.00
38, -157665.00, -146735.64, -132448.28, -136511.80, -131559.17, -154229.36, -158984.91, -162907.98, 0.07, 0.00, 0.00
39, -157666.42, -146736.42, -132449.59, -136512.84, -131560.28, -154230.16, -158986.19, -162908.81, 0.07, 0.00, 0.00
40, -157662.20, -146732.09, -132445.80, -136509.00, -131556.48, -154226.16, -158982.16, -162904.45, 0.07, 0.00, 0.00
41, -157658.22, -146728.27, -132442.44, -136505.88, -131553.27, -154222.72, -158978.66, -162900.80, 0.07, 0.00, 0.00
42, -157659.72, -146729.25, -132443.89, -136507.06, -131554.52, -154223.77, -158979.92, -162901.81, 0.07, 0.00, 0.00
43, -157665.09, -146733.88, -132449.06, -136511.80, -131559.34, -154228.27, -158984.88, -162906.33, 0.07, 0.00, 0.00
44, -157665.75, -146734.33, -132450.17, -136512.81, -131560.38, -154229.09, -158985.84, -162906.92, 0.07, 0.00, 0.00
45, -157664.81, -146733.56, -132449.89, -136512.73, -131560.27, -154228.80, -158985.53, -162906.38, 0.07, 0.00, 0.00
46, -157665.13, -146733.50, -132450.33, -136512.98, -131560.52, -154228.91, -158985.73, -162906.34, 0.07, 0.00, 0.00
47, -157666.89, -146734.50, -132451.72, -136513.92, -131561.67, -154229.72, -158986.92, -162907.08, 0.07, 0.00, 0.00
48, -157665.02, -146732.36, -132450.05, -136512.25, -131559.95, -154227.72, -158985.30, -162904.98, 0.07, 0.00, 0.00
49, -157659.36, -146726.86, -132445.06, -136507.59, -131555.05, -154222.61, -158980.16, -162899.64, 0.07, 0.00, 0.00
50, -157658.05, -146725.27, -132443.95, -136506.39, -131553.84, -154221.20, -158978.83, -162898.17, 0.07, 0.00, 0.00
51, -157662.19, -146728.73, -132447.98, -136509.92, -131557.53, -154224.50, -158982.64, -162901.55, 0.07, 0.00, 0.00
52, -157662.47, -146728.67, -132448.47, -136510.23, -131557.89, -154224.63, -158982.98, -162901.45, 0.07, 0.00, 0.00
53, -157658.58, -146724.83, -132445.13, -136507.03, -131554.78, -154221.27, -158979.53, -162897.77, 0.07, 0.00, 0.00
54, -157655.70, -146721.86, -132442.63, -136504.47, -131552.13, -154218.47, -158976.89, -162894.75, 0.07, 0.00, 0.00
55, -157657.39, -146722.86, -132444.16, -136505.55, -131553.31, -154219.34, -158978.14, -162895.66, 0.07, 0.00, 0.00
56, -157660.33, -146725.30, -132447.00, -136508.27, -131556.06, -154221.83, -158980.95, -162898.06, 0.07, 0.00, 0.00
57, -157658.78, -146723.80, -132446.08, -136507.48, -131555.19, -154220.80, -158979.91, -162896.80, 0.07, 0.00, 0.00
58, -157655.28, -146720.28, -132443.05, -136504.61, -131552.14, -154217.63, -158976.73, -162893.34, 0.07, 0.00, 0.00
59, -157656.69, -146720.91, -132444.11, -136505.25, -131553.00, -154218.19, -158977.69, -162893.89, 0.07, 0.00, 0.00
60, -157658.83, -146722.41, -132446.27, -136506.95, -131554.89, -154219.63, -158979.53, -162895.33, 0.07, 0.00, 0.00
61, -157653.58, -146717.25, -132441.61, -136502.44, -131550.27, -154214.83, -158974.72, -162890.23, 0.07, 0.00, 0.00
62, -157649.38, -146713.06, -132437.92, -136498.97, -131546.69, -154211.19, -158971.02, -162886.34, 0.07, 0.00, 0.00
63, -157655.20, -146718.44, -132443.69, -136504.31, -131552.23, -154216.45, -158976.48, -162891.58, 0.07, 0.00, 0.00
64, -157658.06, -146720.84, -132446.52, -136506.77, -131554.81, -154218.69, -158979.19, -162893.67, 0.07, 0.00, 0.00
65, -157653.70, -146716.17, -132442.50, -136502.75, -131550.70, -154214.47, -158975.02, -162889.25, 0.07, 0.00, 0.00
66, -157651.45, -146714.08, -132440.83, -136501.31, -131549.11, -154212.69, -158973.20, -162887.19, 0.07, 0.00, 0.00
67, -157652.28, -146714.45, -132441.72, -136502.02, -131549.75, -154213.13, -158973.94, -162887.59, 0.07, 0.00, 0.00
68, -157655.55, -146717.00, -132444.72, -136504.56, -131552.55, -154215.66, -158976.83, -162890.14, 0.07, 0.00, 0.00
69, -157655.78, -146717.05, -132445.33, -136505.00, -131553.09, -154215.83, -158977.25, -162890.23, 0.07, 0.00, 0.00
70, -157649.52, -146710.72, -132439.48, -136499.50, -131547.41, -154210.00, -158971.33, -162884.06, 0.07, 0.00, 0.00
71, -157648.09, -146708.86, -132438.11, -136498.05, -131545.94, -154208.44, -158969.78, -162882.28, 0.07, 0.00, 0.00
72, -157653.70, -146713.77, -132443.61, -136503.08, -131551.09, -154213.27, -158975.08, -162887.08, 0.07, 0.00, 0.00
73, -157654.94, -146714.66, -132445.06, -136504.36, -131552.55, -154214.20, -158976.39, -162888.09, 0.07, 0.00, 0.00
74, -157650.25, -146710.16, -132441.09, -136500.53, -131548.55, -154210.20, -158972.23, -162883.73, 0.07, 0.00, 0.00
75, -157646.09, -146705.80, -132437.14, -136496.58, -131544.58, -154206.09, -158968.19, -162879.39, 0.07, 0.00, 0.00
76, -157646.31, -146705.31, -132437.09, -136496.08, -131544.30, -154205.44, -158968.02, -162878.75, 0.06, 0.00, 0.00
77, -157646.13, -146704.81, -132437.14, -136495.81, -131544.19, -154204.91, -158967.81, -162878.11, 0.06, 0.00, 0.00
78, -157643.56, -146702.39, -132435.22, -136493.97, -131542.22, -154202.88, -158965.75, -162875.64, 0.06, 0.00, 0.00
79, -157641.33, -146700.02, -132433.44, -136492.28, -131540.48, -154200.97, -158963.92, -162873.52, 0.07, 0.00, 0.00
80, -157645.80, -146703.70, -132437.48, -136495.97, -131544.28, -154204.52, -158967.97, -162877.16, 0.07, 0.00, 0.00
81, -157647.16, -146704.64, -132438.91, -136497.14, -131545.52, -154205.38, -158969.02, -162877.89, 0.07, 0.00, 0.00
82, -157643.41, -146700.91, -132435.69, -136494.13, -131542.42, -154202.05, -158965.80, -162874.34, 0.07, 0.00, 0.00
83, -157641.47, -146698.92, -132434.23, -136492.73, -131540.92, -154200.50, -158964.28, -162872.53, 0.06, 0.00, 0.00
84, -157646.63, -146703.38, -132439.20, -136497.41, -131545.64, -154205.02, -158969.20, -162877.11, 0.06, 0.00, 0.00
85, -157650.78, -146706.91, -132443.25, -136501.11, -131549.38, -154208.39, -158972.89, -162880.53, 0.06, 0.00, 0.00
86, -157648.50, -146704.59, -132441.39, -136499.34, -131547.64, -154206.44, -158970.92, -162878.25, 0.07, 0.00, 0.00
87, -157642.38, -146698.47, -132435.95, -136493.98, -131542.17, -154200.83, -158965.25, -162872.33, 0.07, 0.00, 0.00
88, -157644.08, -146699.86, -132437.77, -136495.53, -131543.72, -154202.13, -158966.86, -162873.53, 0.07, 0.00, 0.00
89, -157649.75, -146704.86, -132443.14, -136500.52, -131548.95, -154207.00, -158972.11, -162878.41, 0.07, 0.00, 0.00
90, -157646.22, -146701.16, -132439.95, -136497.34, -131545.78, -154203.58, -158968.81, -162874.73, 0.06, 0.00, 0.00
91, -157641.31, -146696.44, -132435.88, -136493.42, -131541.67, -154199.36, -158964.53, -162870.31, 0.06, 0.00, 0.00
92, -157641.08, -146695.77, -132435.72, -136493.03, -131541.33, -154198.84, -158964.19, -162869.72, 0.06, 0.00, 0.00
93, -157647.39, -146701.33, -132441.61, -136498.50, -131547.03, -154204.20, -158970.00, -162875.03, 0.07, 0.00, 0.00
94, -157644.25, -146697.88, -132438.80, -136495.55, -131544.02, -154201.03, -158966.98, -162871.70, 0.07, 0.00, 0.00
95, -157638.11, -146691.97, -132433.39, -136490.25, -131538.69, -154195.45, -158961.38, -162865.84, 0.06, 0.00, 0.00
96, -157637.08, -146690.53, -132432.56, -136489.33, -131537.75, -154194.28, -158960.28, -162864.59, 0.06, 0.00, 0.00
97, -157640.77, -146693.52, -132435.91, -136492.28, -131541.00, -154197.11, -158963.56, -162867.36, 0.06, 0.00, 0.00
98, -157641.11, -146693.53, -132436.47, -136492.69, -131541.42, -154197.33, -158963.95, -162867.41, 0.06, 0.00, 0.00
99, -157636.25, -146688.75, -132432.30, -136488.64, -131537.28, -154193.09, -158959.72, -162862.98, 0.06, 0.00, 0.00
100, -157635.52, -146687.88, -132431.89, -136488.28, -131536.75, -154192.47, -158959.14, -162862.16, 0.06, 0.00, 0.00
101, -157639.16, -146690.78, -132435.20, -136491.22, -131539.88, -154195.16, -158962.27, -162864.80, 0.06, 0.00, 0.00
102, -157637.61, -146688.80, -132433.72, -136489.45, -131538.25, -154193.17, -158960.73, -162862.66, 0.06, 0.02, 0.04
103, -157632.92, -146684.23, -132429.70, -136485.56, -131534.17, -154188.97, -158956.53, -162858.20, 0.06, 0.00, 0.00
104, -157630.08, -146681.33, -132427.20, -136483.25, -131531.73, -154186.38, -158953.94, -162855.39, 0.06, 0.00, 0.00
105, -157633.39, -146684.03, -132430.42, -136485.94, -131534.67, -154188.98, -158956.97, -162858.00, 0.06, 0.00, 0.00
106, -157632.77, -146682.63, -132429.72, -136484.98, -131533.81, -154187.84, -158956.06, -162856.75, 0.06, 0.00, 0.00
107, -157631.58, -146681.44, -132429.09, -136484.39, -131533.22, -154187.09, -158955.30, -162855.70, 0.06, 0.00, 0.00
108, -157629.81, -146679.83, -132427.88, -136483.38, -131532.03, -154185.75, -158954.00, -162854.16, 0.06, 0.00, 0.00
109, -157634.02, -146683.42, -132431.94, -136487.13, -131535.86, -154189.30, -158957.94, -162857.64, 0.06, 0.00, 0.00
110, -157639.20, -146688.02, -132436.97, -136491.89, -131540.77, -154193.77, -158962.86, -162862.22, 0.06, 0.00, 0.00
111, -157637.95, -146686.61, -132436.11, -136490.97, -131539.88, -154192.63, -158961.84, -162860.89, 0.06, 0.00, 0.00
112, -157630.36, -146679.08, -132429.13, -136484.22, -131532.91, -154185.56, -158954.73, -162853.48, 0.06, 0.00, 0.00
113, -157628.67, -146676.97, -132427.33, -136482.31, -131531.05, -154183.36, -158952.84, -162851.36, 0.06, 0.00, 0.00
114, -157634.27, -146681.75, -132432.70, -136487.17, -131535.97, -154188.11, -158957.94, -162856.17, 0.06, 0.00, 0.00
115, -157634.16, -146681.50, -132433.03, -136487.39, -131536.23, -154188.25, -158958.11, -162855.97, 0.06, 0.00, 0.00
116, -157627.94, -146675.42, -132427.53, -136482.03, -131530.78, -154182.64, -158952.39, -162850.00, 0.06, 0.00, 0.00
117, -157629.14, -146676.19, -132428.83, -136483.08, -131531.92, -154183.53, -158953.55, -162850.83, 0.06, 0.00, 0.00
118, -157633.92, -146680.25, -132433.44, -136487.19, -131536.30, -154187.48, -158957.98, -162854.83, 0.06, 0.00, 0.00
119, -157630.42, -146676.41, -132430.11, -136483.70, -131532.91, -154183.80, -158954.52, -162850.92, 0.06, 0.00, 0.00
120, -157624.45, -146670.59, -132424.81, -136478.61, -131527.67, -154178.44, -158949.06, -162845.23, 0.06, 0.00, 0.00
121, -157619.89, -146665.97, -132420.58, -136474.41, -131523.42, -154174.03, -158944.64, -162840.75, 0.06, 0.00, 0.00
122, -157625.22, -146670.48, -132425.55, -136478.94, -131528.09, -154178.42, -158949.53, -162845.11, 0.06, 0.00, 0.00
123, -157627.09, -146671.98, -132427.48, -136480.73, -131529.95, -154179.95, -158951.41, -162846.59, 0.06, 0.00, 0.00
124, -157621.50, -146666.59, -132422.66, -136476.02, -131525.13, -154175.11, -158946.42, -162841.30, 0.06, 0.00, 0.00
125, -157619.02, -146663.94, -132420.63, -136473.95, -131523.06, -154172.73, -158944.13, -162838.80, 0.06, 0.00, 0.00
126, -157623.22, -146667.31, -132424.52, -136477.42, -131526.69, -154176.00, -158947.77, -162842.09, 0.06, 0.00, 0.00
127, -157626.28, -146669.86, -132427.58, -136480.27, -131529.55, -154178.58, -158950.78, -162844.70, 0.06, 0.00, 0.00
128, -157621.30, -146665.03, -132423.22, -136475.98, -131525.19, -154174.06, -158946.31, -162839.94, 0.06, 0.00, 0.00
129, -157616.63, -146660.42, -132419.03, -136472.08, -131521.06, -154169.83, -158941.97, -162835.38, 0.06, 0.00, 0.00
130, -157619.33, -146662.36, -132421.41, -136474.09, -131523.25, -154171.64, -158944.25, -162837.28, 0.06, 0.00, 0.00
131, -157621.88, -146664.31, -132423.84, -136476.19, -131525.48, -154173.64, -158946.45, -162839.06, 0.06, 0.00, 0.00
132, -157618.06, -146660.42, -132420.61, -136472.97, -131522.16, -154170.09, -158943.09, -162835.22, 0.06, 0.00, 0.00
133, -157615.58, -146658.00, -132418.64, -136471.13, -131520.31, -154168.11, -158940.98, -162833.06, 0.06, 0.00, 0.00
134, -157618.66, -146660.45, -132421.63, -136473.84, -131523.11, -154170.58, -158943.73, -162835.52, 0.06, 0.00, 0.00
135, -157621.20, -146662.28, -132423.98, -136475.92, -131525.28, -154172.47, -158946.06, -162837.34, 0.06, 0.00, 0.00
136, -157617.92, -146658.86, -132420.98, -136472.95, -131522.33, -154169.28, -158943.00, -162833.89, 0.06, 0.00, 0.00
137, -157613.98, -146655.17, -132417.78, -136469.89, -131519.14, -154166.02, -158939.66, -162830.34, 0.06, 0.00, 0.00
138, -157613.86, -146654.55, -132417.63, -136469.48, -131518.80, -154165.44, -158939.34, -162829.75, 0.06, 0.00, 0.00
139, -157618.89, -146658.86, -132422.39, -136473.95, -131523.45, -154169.56, -158944.02, -162834.11, 0.06, 0.00, 0.00
140, -157618.28, -146657.92, -132422.17, -136473.58, -131523.14, -154169.00, -158943.61, -162833.30, 0.06, 0.00, 0.00
141, -157615.05, -146654.91, -132419.70, -136471.14, -131520.66, -154166.48, -158940.91, -162830.23, 0.06, 0.00, 0.00
142, -157616.67, -146656.25, -132421.55, -136472.80, -131522.27, -154167.89, -158942.56, -162831.63, 0.06, 0.00, 0.00
143, -157619.48, -146658.16, -132423.83, -136474.77, -131524.45, -154169.72, -158944.84, -162833.48, 0.06, 0.00, 0.00
144, -157618.84, -146657.33, -132423.48, -136474.25, -131523.97, -154169.03, -158944.30, -162832.59, 0.06, 0.00, 0.00
145, -157614.94, -146653.67, -132420.33, -136471.34, -131520.81, -154165.83, -158940.97, -162829.09, 0.06, 0.00, 0.00
146, -157612.73, -146651.28, -132418.41, -136469.48, -131518.98, -154163.69, -158938.88, -162826.80, 0.06, 0.00, 0.00
147, -157616.94, -146654.58, -132422.33, -136472.84, -131522.53, -154166.88, -158942.52, -162830.08, 0.06, 0.00, 0.00
148, -157618.70, -146655.89, -132424.25, -136474.47, -131524.30, -154168.31, -158944.34, -162831.41, 0.06, 0.00, 0.00
149, -157613.52, -146650.84, -132419.69, -136470.06, -131519.83, -154163.59, -158939.67, -162826.48, 0.06, 0.00, 0.00
150, -157610.42, -146647.78, -132416.98, -136467.50, -131517.14, -154160.77, -158936.91, -162823.33, 0.06, 0.00, 0.00
151, -157614.38, -146650.97, -132420.64, -136470.72, -131520.55, -154163.80, -158940.39, -162826.47, 0.06, 0.00, 0.00
152, -157616.66, -146652.78, -132422.91, -136472.73, -131522.72, -154165.81, -158942.53, -162828.31, 0.06, 0.00, 0.00
153, -157613.33, -146649.33, -132420.00, -136469.98, -131519.83, -154162.81, -158939.47, -162824.94, 0.06, 0.00, 0.00
154, -157611.52, -146647.72, -132418.80, -136468.84, -131518.64, -154161.39, -158938.06, -162823.38, 0.06, 0.00, 0.00
155, -157615.88, -146651.41, -132422.86, -136472.66, -131522.58, -154164.94, -158941.95, -162827.00, 0.06, 0.00, 0.00
156, -157619.42, -146654.19, -132426.30, -136475.75, -131525.81, -154167.84, -158945.28, -162829.86, 0.06, 0.00, 0.00
157, -157615.89, -146650.61, -132423.28, -136472.69, -131522.69, -154164.61, -158942.09, -162826.28, 0.06, 0.00, 0.00
158, -157610.55, -146645.36, -132418.53, -136467.97, -131518.08, -154159.73, -158937.27, -162821.14, 0.06, 0.00, 0.00
159, -157611.23, -146645.55, -132419.27, -136468.42, -131518.55, -154160.05, -158937.77, -162821.34, 0.06, 0.00, 0.00
160, -157615.17, -146648.81, -132423.02, -136471.83, -131522.05, -154163.27, -158941.38, -162824.55, 0.06, 0.00, 0.00
161, -157613.44, -146646.95, -132421.59, -136470.50, -131520.70, -154161.66, -158939.92, -162822.75, 0.06, 0.00, 0.00
162, -157609.14, -146642.77, -132418.02, -136467.16, -131517.08, -154157.92, -158936.14, -162818.75, 0.06, 0.00, 0.00
163, -157609.00, -146642.08, -132417.70, -136466.78, -131516.67, -154157.31, -158935.83, -162818.06, 0.06, 0.00, 0.00
164, -157611.64, -146644.02, -132420.27, -136468.73, -131518.94, -154159.11, -158938.16, -162819.94, 0.06, 0.00, 0.00
165, -157610.48, -146642.59, -132419.42, -136467.77, -131518.02, -154157.94, -158937.08, -162818.58, 0.06, 0.00, 0.00
166, -157604.98, -146637.09, -132414.55, -136463.05, -131513.22, -154153.03, -158932.03, -162813.23, 0.06, 0.00, 0.00
167, -157606.59, -146638.44, -132416.33, -136464.89, -131514.94, -154154.52, -158933.70, -162814.70, 0.06, 0.00, 0.00
168, -157611.95, -146643.17, -132421.44, -136469.55, -131519.77, -154159.02, -158938.67, -162819.22, 0.06, 0.00, 0.00
169, -157613.80, -146644.67, -132423.47, -136471.39, -131521.70, -154160.78, -158940.61, -162820.72, 0.06, 0.00, 0.00
170, -157609.09, -146640.09, -132419.47, -136467.59, -131517.73, -154156.73, -158936.50, -162816.31, 0.06, 0.00, 0.00
171, -157607.33, -146638.08, -132417.92, -136466.05, -131516.14, -154154.97, -158934.83, -162814.38, 0.06, 0.00, 0.00
172, -157611.94, -146641.97, -132422.22, -136469.83, -131520.16, -154158.56, -158938.91, -162818.06, 0.06, 0.00, 0.00
173, -157611.91, -146641.44, -132422.23, -136469.59, -131519.97, -154158.19, -158938.72, -162817.59, 0.06, 0.00, 0.00
174, -157606.08, -146635.59, -132417.08, -136464.44, -131514.73, -154152.80, -158933.34, -162811.91, 0.06, 0.00, 0.00
175, -157600.83, -146630.50, -132412.41, -136459.86, -131510.11, -154147.95, -158928.63, -162806.84, 0.06, 0.00, 0.00
176, -157601.61, -146630.61, -132412.88, -136460.02, -131510.39, -154147.95, -158929.02, -162806.80, 0.06, 0.00, 0.00
177, -157602.75, -146631.28, -132414.05, -136460.86, -131511.33, -154148.59, -158929.91, -162807.42, 0.06, 0.00, 0.00
178, -157601.91, -146630.33, -132413.72, -136460.59, -131511.05, -154148.05, -158929.44, -162806.55, 0.06, 0.00, 0.00
179, -157600.00, -146628.47, -132412.38, -136459.42, -131509.72, -154146.61, -158927.98, -162804.88, 0.06, 0.00, 0.00
180, -157603.02, -146630.95, -132415.16, -136461.94, -131512.34, -154149.05, -158930.69, -162807.33, 0.06, 0.00, 0.00
181, -157605.39, -146632.63, -132417.45, -136463.75, -131514.39, -154150.72, -158932.75, -162808.92, 0.06, 0.00, 0.00
182, -157601.52, -146628.64, -132414.03, -136460.30, -131510.86, -154147.02, -158929.19, -162805.05, 0.06, 0.00, 0.00
183, -157594.17, -146621.38, -132407.33, -136453.91, -131504.11, -154140.23, -158922.44, -162798.03, 0.06, 0.00, 0.00
184, -157595.03, -146621.77, -132408.06, -136454.48, -131504.77, -154140.59, -158923.06, -162798.34, 0.06, 0.00, 0.00
185, -157601.78, -146627.80, -132414.66, -136460.59, -131511.09, -154146.55, -158929.38, -162804.30, 0.06, 0.00, 0.00
186, -157601.45, -146627.34, -132414.61, -136460.66, -131511.05, -154146.25, -158929.22, -162803.89, 0.06, 0.00, 0.00
187, -157595.73, -146621.73, -132409.53, -136455.77, -131506.13, -154141.20, -158924.08, -162798.50, 0.06, 0.00, 0.00
188, -157594.67, -146620.38, -132408.64, -136454.58, -131505.17, -154139.91, -158923.06, -162797.06, 0.06, 0.00, 0.00
189, -157599.55, -146624.41, -132413.23, -136458.77, -131509.36, -154143.80, -158927.42, -162801.00, 0.06, 0.00, 0.00
190, -157599.78, -146624.22, -132413.67, -136459.11, -131509.66, -154143.92, -158927.72, -162801.00, 0.06, 0.00, 0.00
191, -157595.70, -146620.33, -132410.36, -136455.89, -131506.31, -154140.55, -158924.20, -162797.22, 0.06, 0.00, 0.00
192, -157594.92, -146619.48, -132409.83, -136455.41, -131505.80, -154139.77, -158923.61, -162796.27, 0.06, 0.00, 0.00
193, -157598.77, -146622.56, -132413.36, -136458.53, -131509.17, -154142.70, -158927.11, -162799.28, 0.06, 0.00, 0.00
194, -157598.81, -146622.19, -132413.61, -136458.58, -131509.25, -154142.56, -158927.09, -162798.97, 0.06, 0.00, 0.00
195, -157593.36, -146616.83, -132408.75, -136453.80, -131504.45, -154137.64, -158922.11, -162793.66, 0.06, 0.00, 0.00
196, -157588.31, -146611.61, -132404.05, -136449.14, -131499.72, -154132.73, -158917.23, -162788.59, 0.06, 0.00, 0.00
197, -157589.97, -146612.63, -132405.42, -136450.11, -131500.77, -154133.47, -158918.59, -162789.50, 0.06, 0.00, 0.00
198, -157592.63, -146614.77, -132408.17, -136452.48, -131503.38, -154135.72, -158921.09, -162791.59, 0.06, 0.00, 0.00
199, -157591.23, -146613.38, -132407.42, -136451.92, -131502.66, -154134.83, -158920.14, -162790.36, 0.06, 0.00, 0.00
200, -157584.64, -146606.78, -132401.22, -136445.91, -131496.45, -154128.58, -158913.83, -162783.92, 0.06, 0.00, 0.00
201, -157587.86, -146609.27, -132404.17, -136448.48, -131499.16, -154130.89, -158916.58, -162786.36, 0.06, 0.00, 0.00
202, -157587.80, -146608.80, -132404.22, -136448.05, -131499.02, -154130.38, -158916.45, -162785.72, 0.06, 0.00, 0.00
203, -157584.73, -146605.83, -132401.77, -136445.59, -131496.45, -154127.70, -158913.83, -162782.75, 0.06, 0.00, 0.00
204, -157580.27, -146601.22, -132397.84, -136441.91, -131492.53, -154123.70, -158909.67, -162778.45, 0.06, 0.00, 0.00
205, -157583.17, -146603.45, -132400.58, -136444.34, -131495.16, -154126.05, -158912.22, -162780.70, 0.06, 0.00, 0.00
206, -157586.31, -146606.11, -132403.55, -136446.94, -131497.91, -154128.50, -158915.17, -162783.14, 0.06, 0.00, 0.00
207, -157584.73, -146604.34, -132402.28, -136445.69, -131496.67, -154126.98, -158913.88, -162781.47, 0.07, 0.00, 0.00
208, -157579.88, -146599.63, -132398.03, -136441.70, -131492.58, -154122.69, -158909.47, -162776.86, 0.07, 0.00, 0.00
209, -157580.11, -146599.34, -132398.28, -136441.72, -131492.63, -154122.63, -158909.59, -162776.59, 0.07, 0.00, 0.00
210, -157584.38, -146602.97, -132402.39, -136445.42, -131496.42, -154126.14, -158913.55, -162780.13, 0.07, 0.00, 0.00
211, -157582.45, -146600.77, -132400.75, -136443.73, -131494.69, -154124.13, -158911.69, -162777.95, 0.07, 0.00, 0.00
212, -157577.69, -146596.23, -132396.70, -136439.72, -131490.64, -154119.97, -158907.38, -162773.38, 0.07, 0.00, 0.00
213, -157576.55, -146594.72, -132395.70, -136438.55, -131489.52, -154118.64, -158906.19, -162771.98, 0.07, 0.00, 0.00
214, -157584.20, -146601.53, -132403.11, -136445.58, -131496.78, -154125.36, -158913.52, -162778.86, 0.07, 0.02, 0.06
215, -157581.38, -146598.42, -132400.44, -136442.86, -131494.09, -154122.41, -158910.77, -162775.77, 0.07, 0.00, 0.00
216, -157577.88, -146595.05, -132397.63, -136440.20, -131491.31, -154119.50, -158907.75, -162772.48, 0.07, 0.00, 0.00
217, -157576.44, -146593.28, -132396.34, -136438.94, -131490.03, -154118.05, -158906.39, -162770.89, 0.06, 0.00, 0.00
218, -157580.48, -146596.58, -132400.05, -136442.23, -131493.44, -154121.05, -158909.98, -162774.05, 0.06, 0.00, 0.00
219, -157582.75, -146598.52, -132402.50, -136444.45, -131495.70, -154123.08, -158912.27, -162775.88, 0.06, 0.00, 0.00
220, -157578.05, -146593.91, -132398.47, -136440.52, -131491.70, -154118.95, -158908.09, -162771.33, 0.07, 0.00, 0.00
221, -157575.81, -146591.66, -132396.69, -136438.83, -131489.83, -154117.03, -158906.17, -162769.22, 0.07, 0.00, 0.00
222, -157581.72, -146596.75, -132402.25, -136443.97, -131495.11, -154122.00, -158911.53, -162774.27, 0.07, 0.00, 0.00
223, -157581.14, -146595.67, -132401.67, -136443.11, -131494.34, -154120.95, -158910.73, -162773.05, 0.07, 0.00, 0.00
224, -157576.08, -146590.72, -132397.17, -136438.75, -131489.83, -154116.28, -158906.13, -162768.17, 0.07, 0.00, 0.00
225, -157570.88, -146585.42, -132392.50, -136434.17, -131485.23, -154111.50, -158901.36, -162763.14, 0.07, 0.00, 0.00
226, -157573.47, -146587.47, -132394.92, -136436.34, -131487.50, -154113.48, -158903.64, -162765.11, 0.07, 0.00, 0.00
227, -157576.44, -146589.86, -132397.73, -136438.84, -131490.17, -154115.73, -158906.41, -162767.44, 0.07, 0.00, 0.00
228, -157571.44, -146584.66, -132393.13, -136434.23, -131485.56, -154110.98, -158901.72, -162762.41, 0.07, 0.00, 0.00
229, -157566.41, -146579.73, -132388.84, -136430.06, -131481.20, -154106.56, -158897.11, -162757.66, 0.07, 0.00, 0.00
230, -157568.64, -146581.42, -132390.97, -136431.88, -131483.13, -154108.14, -158899.11, -162759.19, 0.07, 0.00, 0.00
231, -157571.92, -146583.98, -132394.05, -136434.50, -131486.05, -154110.72, -158902.02, -162761.69, 0.07, 0.00, 0.00
232, -157569.83, -146581.75, -132392.33, -136432.81, -131484.22, -154108.75, -158900.05, -162759.52, 0.07, 0.00, 0.00
233, -157565.64, -146577.64, -132388.80, -136429.44, -131480.72, -154105.13, -158896.38, -162755.61, 0.07, 0.00, 0.00
234, -157571.50, -146583.11, -132394.67, -136435.20, -131486.39, -154110.63, -158902.17, -162760.97, 0.07, 0.00, 0.00
235, -157576.97, -146587.94, -132399.86, -136440.00, -131491.48, -154115.30, -158907.28, -162765.69, 0.07, 0.00, 0.00
236, -157573.84, -146584.45, -132397.11, -136437.03, -131488.58, -154112.19, -158904.33, -162762.33, 0.07, 0.00, 0.00
237, -157570.42, -146581.17, -132394.34, -136434.50, -131485.89, -154109.33, -158901.50, -162759.23, 0.07, 0.00, 0.00
238, -157569.17, -146579.63, -132393.27, -136433.39, -131484.78, -154107.98, -158900.20, -162757.73, 0.07, 0.00, 0.00
239, -157570.72, -146580.45, -132394.52, -136434.19, -131485.78, -154108.66, -158901.36, -162758.48, 0.07, 0.00, 0.00
240, -157569.98, -146579.42, -132393.95, -136433.48, -131485.08, -154107.77, -158900.69, -162757.33, 0.07, 0.00, 0.00
241, -157568.86, -146578.47, -132393.48, -136433.17, -131484.72, -154107.19, -158900.02, -162756.45, 0.07, 0.00, 0.00
242, -157567.55, -146576.88, -132392.55, -136432.16, -131483.63, -154105.91, -158898.91, -162755.09, 0.07, 0.00, 0.00
243, -157574.00, -146582.59, -132398.77, -136437.91, -131489.55, -154111.41, -158904.95, -162760.69, 0.07, 0.00, 0.00
244, -157575.19, -146583.36, -132400.05, -136438.95, -131490.70, -154112.28, -158906.19, -162761.42, 0.07, 0.00, 0.00
245, -157569.11, -146577.34, -132394.66, -136433.61, -131485.27, -154106.75, -158900.53, -162755.58, 0.07, 0.00, 0.00
246, -157563.52, -146571.73, -132389.41, -136428.61, -131480.16, -154101.45, -158895.23, -162750.09, 0.07, 0.00, 0.00
247, -157567.64, -146575.19, -132393.27, -136432.14, -131483.81, -154104.77, -158898.81, -162753.33, 0.07, 0.00, 0.00
248, -157569.16, -146576.23, -132394.91, -136433.36, -131485.19, -154105.80, -158900.30, -162754.38, 0.07, 0.00, 0.00
249, -157568.03, -146575.14, -132394.39, -136432.97, -131484.69, -154105.08, -158899.59, -162753.47, 0.07, 0.00, 0.00
250, -157563.92, -146571.05, -132390.77, -136429.48, -131481.14, -154101.39, -158895.84, -162749.44, 0.07, 0.00, 0.00
251, -157568.11, -146574.67, -132394.77, -136433.14, -131484.95, -154104.97, -158899.81, -162752.98, 0.07, 0.00, 0.00
252, -157571.20, -146577.03, -132397.69, -136435.69, -131487.59, -154107.31, -158902.55, -162755.27, 0.07, 0.00, 0.00
253, -157569.56, -146575.38, -132396.59, -136434.63, -131486.44, -154105.97, -158901.27, -162753.73, 0.07, 0.00, 0.00
254, -157565.27, -146571.16, -132392.86, -136431.13, -131482.75, -154102.33, -158897.45, -162749.66, 0.07, 0.00, 0.00
255, -157566.03, -146571.36, -132393.61, -136431.56, -131483.28, -154102.55, -158898.02, -162749.86, 0.06, 0.00, 0.00
0, -157568.80, -146573.34, -132396.08, -136433.56, -131485.52, -154104.39, -158900.20, -162751.67, 0.07, 0.00, 0.00
1, -157567.48, -146572.13, -132395.25, -136432.81, -131484.63, -154103.30, -158899.27, -162750.42, 0.06, 0.00, 0.00
2, -157561.33, -146566.00, -132389.72, -136427.58, -131479.22, -154097.77, -158893.69, -162744.59, 0.06, 0.00, 0.00
3, -157562.30, -146566.50, -132390.66, -136428.42, -131479.97, -154098.36, -158894.52, -162745.06, 0.06, 0.00, 0.00
4, -157564.17, -146567.63, -132392.28, -136429.50, -131481.34, -154099.31, -158896.02, -162746.02, 0.06, 0.00, 0.00
5, -157562.61, -146565.72, -132390.97, -136428.03, -131479.95, -154097.59, -158894.55, -162744.20, 0.06, 0.00, 0.00
6, -157555.94, -146559.17, -132385.00, -136422.23, -131474.09, -154091.67, -158888.38, -162737.92, 0.07, 0.00, 0.00
7, -157557.59, -146560.58, -132386.94, -136424.06, -131475.89, -154093.33, -158890.19, -162739.33, 0.07, 0.00, 0.00
8, -157562.83, -146565.02, -132391.81, -136428.61, -131480.56, -154097.53, -158894.91, -162743.69, 0.06, 0.00, 0.00
9, -157562.89, -146564.72, -132392.03, -136428.63, -131480.58, -154097.34, -158894.95, -162743.41, 0.06, 0.00, 0.00
10, -157561.05, -146562.94, -132390.88, -136427.59, -131479.42, -154096.00, -158893.66, -162741.75, 0.06, 0.00, 0.00
11, -157557.06, -146558.89, -132387.19, -136423.98, -131475.77, -154092.23, -158889.94, -162737.72, 0.06, 0.00, 0.00
12, -157562.73, -146563.78, -132392.55, -136428.94, -131480.91, -154096.97, -158895.14, -162742.55, 0.06, 0.00, 0.00
13, -157565.73, -146566.39, -132395.72, -136431.89, -131483.94, -154099.63, -158898.08, -162745.19, 0.07, 0.00, 0.00
14, -157561.52, -146562.31, -132392.16, -136428.27, -131480.28, -154095.83, -158894.30, -162741.03, 0.06, 0.00, 0.00
15, -157556.66, -146557.41, -132387.75, -136423.95, -131475.97, -154091.33, -158889.78, -162736.31, 0.06, 0.00, 0.00
16, -157557.73, -146557.81, -132388.59, -136424.50, -131476.58, -154091.67, -158890.48, -162736.66, 0.06, 0.00, 0.00
17, -157559.20, -146558.80, -132390.05, -136425.70, -131477.84, -154092.58, -158891.70, -162737.55, 0.06, 0.00, 0.00
18, -157557.86, -146557.48, -132389.28, -136424.88, -131476.98, -154091.61, -158890.77, -162736.27, 0.06, 0.00, 0.00
19, -157555.61, -146555.27, -132387.55, -136423.31, -131475.38, -154089.92, -158889.03, -162734.23, 0.06, 0.00, 0.00
20, -157559.59, -146558.58, -132391.36, -136426.80, -131478.95, -154093.22, -158892.63, -162737.61, 0.06, 0.00, 0.00
21, -157561.53, -146559.91, -132393.36, -136428.31, -131480.59, -154094.53, -158894.36, -162738.84, 0.06, 0.00, 0.00
22, -157557.94, -146556.19, -132390.16, -136425.13, -131477.45, -154091.11, -158891.03, -162735.20, 0.06, 0.00, 0.00
23, -157552.23, -146550.58, -132385.05, -136420.20, -131472.38, -154085.92, -158885.83, -162729.67, 0.06, 0.00, 0.00
24, -157555.16, -146553.05, -132387.95, -136422.91, -131475.11, -154088.41, -158888.58, -162732.14, 0.06, 0.00, 0.00
25, -157559.66, -146556.89, -132392.34, -136426.80, -131479.14, -154092.16, -158892.80, -162735.83, 0.06, 0.02, 0.03
26, -157558.92, -146555.94, -132391.95, -136426.45, -131478.81, -154091.52, -158892.27, -162735.00, 0.06, 0.00, 0.00
27, -157552.48, -146549.55, -132386.05, -136420.81, -131473.00, -154085.55, -158886.25, -162728.77, 0.06, 0.00, 0.00
28, -157551.00, -146547.80, -132384.70, -136419.27, -131471.59, -154083.94, -158884.78, -162727.02, 0.06, 0.00, 0.00
29, -157551.94, -146547.98, -132385.33, -136419.44, -131471.86, -154083.95, -158885.22, -162727.11, 0.06, 0.00, 0.00
30, -157550.88, -146546.61, -132384.50, -136418.53, -131470.97, -154082.80, -158884.17, -162725.81, 0.06, 0.00, 0.00
31, -157548.36, -146544.11, -132382.67, -136416.89, -131469.20, -154080.73, -158882.19, -162723.48, 0.06, 0.00, 0.00
32, -157549.75, -146545.31, -132384.28, -136418.53, -131470.77, -154082.17, -158883.75, -162724.78, 0.06, 0.00, 0.00
33, -157552.86, -146547.67, -132387.13, -136420.89, -131473.27, -154084.42, -158886.39, -162727.09, 0.06, 0.00, 0.00
34, -157551.56, -146546.03, -132386.06, -136419.52, -131472.05, -154082.89, -158885.16, -162725.33, 0.06, 0.00, 0.00
35, -157546.36, -146540.89, -132381.47, -136414.97, -131467.50, -154078.17, -158880.33, -162720.31, 0.06, 0.00, 0.00
36, -157545.66, -146540.09, -132381.11, -136414.64, -131467.19, -154077.70, -158879.92, -162719.67, 0.06, 0.00, 0.00
37, -157551.41, -146545.20, -132386.63, -136419.89, -131472.44, -154082.61, -158885.30, -162724.53, 0.06, 0.00, 0.00
38, -157552.95, -146546.23, -132388.23, -136421.14, -131473.88, -154083.69, -158886.75, -162725.61, 0.06, 0.00, 0.00
39, -157549.33, -146542.61, -132385.17, -136418.17, -131470.81, -154080.52, -158883.53, -162722.17, 0.06, 0.00, 0.00
40, -157545.08, -146538.36, -132381.42, -136414.61, -131467.13, -154076.69, -158879.69, -162718.09, 0.06, 0.00, 0.00
41, -157549.34, -146542.02, -132385.48, -136418.38, -131471.06, -154080.22, -158883.50, -162721.56, 0.06, 0.00, 0.00
42, -157553.27, -146545.31, -132389.17, -136421.88, -131474.70, -154083.41, -158887.19, -162724.77, 0.06, 0.00, 0.00
43, -157547.55, -146539.55, -132384.08, -136416.64, -131469.41, -154078.03, -158881.83, -162719.08, 0.06, 0.00, 0.00
44, -157541.75, -146533.88, -132378.88, -136411.59, -131464.23, -154072.78, -158876.44, -162713.45, 0.06, 0.00, 0.00
45, -157544.77, -146536.38, -132381.73, -136414.19, -131466.94, -154075.22, -158879.19, -162715.94, 0.06, 0.00, 0.00
46, -157549.86, -146540.64, -132386.67, -136418.70, -131471.66, -154079.55, -158883.97, -162720.30, 0.07, 0.00, 0.00
47, -157547.73, -146538.39, -132385.00, -136417.03, -131469.94, -154077.56, -158882.19, -162717.98, 0.07, 0.00, 0.00
48, -157540.88, -146531.69, -132378.73, -136411.06, -131463.72, -154071.27, -158875.86, -162711.34, 0.07, 0.00, 0.00
49, -157544.05, -146534.48, -132382.03, -136414.17, -131466.78, -154074.17, -158879.02, -162714.23, 0.07, 0.00, 0.00
50, -157549.23, -146538.88, -132386.94, -136418.66, -131471.44, -154078.48, -158883.72, -162718.59, 0.06, 0.00, 0.00
51, -157547.11, -146536.58, -132385.16, -136416.64, -131469.53, -154076.36, -158881.77, -162716.33, 0.06, 0.00, 0.00
52, -157539.61, -146529.19, -132378.25, -136409.94, -131462.77, -154069.45, -158874.77, -162709.08, 0.06, 0.00, 0.00
53, -157536.91, -146526.09, -132375.66, -136407.31, -131460.02, -154066.56, -158872.03, -162705.98, 0.07, 0.00, 0.00
54, -157542.38, -146530.91, -132380.97, -136412.16, -131465.02, -154071.17, -158877.13, -162710.72, 0.07, 0.00, 0.00
55, -157544.86, -146533.00, -132383.61, -136414.66, -131467.59, -154073.50, -158879.69, -162712.92, 0.06, 0.00, 0.00
56, -157538.16, -146526.56, -132377.58, -136408.78, -131461.63, -154067.34, -158873.47, -162706.41, 0.06, 0.00, 0.00
57, -157535.14, -146523.33, -132374.95, -136406.09, -131458.92, -154064.42, -158870.63, -162703.34, 0.06, 0.00, 0.00
58, -157540.47, -146527.89, -132379.94, -136410.64, -131463.61, -154068.89, -158875.56, -162707.73, 0.06, 0.00, 0.00
59, -157543.00, -146530.13, -132382.61, -136413.08, -131466.23, -154071.13, -158878.05, -162709.86, 0.06, 0.00, 0.00
60, -157538.16, -146525.27, -132378.33, -136408.95, -131461.98, -154066.75, -158873.53, -162705.14, 0.06, 0.00, 0.00
61, -157535.94, -146522.98, -132376.59, -136407.33, -131460.19, -154064.78, -158871.59, -162703.02, 0.06, 0.00, 0.00
62, -157541.03, -146527.39, -132381.31, -136411.69, -131464.78, -154068.95, -158876.27, -162707.22, 0.06, 0.00, 0.00
63, -157543.16, -146528.98, -132383.52, -136413.58, -131466.78, -154070.70, -158878.23, -162708.88, 0.06, 0.00, 0.00
64, -157539.20, -146524.89, -132380.13, -136410.25, -131463.34, -154067.11, -158874.63, -162705.03, 0.06, 0.00, 0.00
65, -157536.19, -146521.92, -132377.64, -136407.94, -131460.91, -154064.48, -158872.08, -162702.13, 0.06, 0.00, 0.00
66, -157538.64, -146523.92, -132380.02, -136410.02, -131463.05, -154066.45, -158874.25, -162704.00, 0.06, 0.00, 0.00
67, -157542.52, -146527.17, -132383.70, -136413.39, -131466.50, -154069.58, -158877.73, -162707.06, 0.06, 0.00, 0.00
68, -157540.55, -146525.00, -132382.14, -136411.78, -131465.05, -154067.80, -158876.22, -162705.05, 0.06, 0.00, 0.00
69, -157534.19, -146518.67, -132376.45, -136406.14, -131459.33, -154061.94, -158870.42, -162698.98, 0.06, 0.00, 0.00
70, -157532.27, -146516.27, -132374.48, -136403.92, -131457.13, -154059.53, -158868.19, -162696.53, 0.06, 0.00, 0.00
71, -157534.42, -146517.72, -132376.41, -136405.50, -131458.86, -154060.91, -158869.89, -162697.88, 0.06, 0.00, 0.00
72, -157534.42, -146517.67, -132376.84, -136405.89, -131459.19, -154061.11, -158870.14, -162697.84, 0.06, 0.00, 0.00
73, -157530.78, -146514.23, -132373.91, -136403.03, -131456.34, -154058.08, -158867.08, -162694.52, 0.06, 0.00, 0.00
74, -157534.78, -146517.73, -132377.98, -136406.97, -131460.27, -154061.77, -158871.02, -162698.16, 0.06, 0.00, 0.00
75, -157541.38, -146523.55, -132384.27, -136412.94, -131466.31, -154067.48, -158877.17, -162703.91, 0.06, 0.00, 0.00
76, -157537.53, -146519.39, -132380.73, -136409.23, -131462.72, -154063.58, -158873.42, -162699.81, 0.06, 0.00, 0.00
77, -157531.69, -146513.83, -132375.63, -136404.20, -131457.67, -154058.45, -158868.03, -162694.34, 0.06, 0.00, 0.00
78, -157530.95, -146512.94, -132375.14, -136403.70, -131457.06, -154057.69, -158867.55, -162693.38, 0.06, 0.00, 0.00
79, -157535.14, -146516.17, -132378.89, -136407.17, -131460.69, -154060.89, -158871.34, -162696.53, 0.06, 0.00, 0.00
80, -157533.69, -146514.36, -132377.58, -136405.70, -131459.23, -154059.08, -158869.84, -162694.70, 0.06, 0.00, 0.00
81, -157529.56, -146510.42, -132374.16, -136402.34, -131455.72, -154055.53, -158866.14, -162690.81, 0.06, 0.00, 0.00
82, -157528.97, -146509.78, -132373.98, -136402.20, -131455.55, -154055.19, -158865.84, -162690.31, 0.06, 0.00, 0.00
83, -157533.30, -146513.27, -132377.95, -136405.78, -131459.28, -154058.55, -158869.80, -162693.80, 0.06, 0.00, 0.00
84, -157533.22, -146512.64, -132378.00, -136405.53, -131459.03, -154058.09, -158869.58, -162693.22, 0.06, 0.00, 0.00
85, -157527.98, -146507.50, -132373.31, -136400.98, -131454.38, -154053.41, -158864.70, -162688.16, 0.06, 0.00, 0.00
86, -157529.02, -146508.58, -132374.83, -136402.67, -131455.92, -154054.78, -158866.11, -162689.30, 0.06, 0.00, 0.00
87, -157533.64, -146512.53, -132379.23, -136406.61, -131460.13, -154058.59, -158870.36, -162693.09, 0.06, 0.00, 0.00
88, -157535.64, -146513.88, -132381.20, -136408.27, -131461.88, -154060.09, -158872.13, -162694.41, 0.06, 0.00, 0.00
89, -157531.48, -146509.80, -132377.64, -136404.88, -131458.36, -154056.36, -158868.50, -162690.45, 0.06, 0.00, 0.00
90, -157525.34, -146503.70, -132371.98, -136399.42, -131452.89, -154050.70, -158862.78, -162684.53, 0.06, 0.00, 0.00
91, -157524.67, -146502.41, -132371.19, -136398.28, -131451.77, -154049.31, -158861.75, -162683.20, 0.06, 0.00, 0.00
92, -157525.98, -146503.08, -132372.41, -136399.08, -131452.75, -154049.80, -158862.83, -162683.86, 0.06, 0.00, 0.00
93, -157525.08, -146502.02, -132371.88, -136398.52, -131452.30, -154049.16, -158862.20, -162682.86, 0.06, 0.00, 0.00
94, -157522.22, -146499.25, -132369.59, -136396.52, -131450.06, -154046.88, -158859.78, -162680.17, 0.06, 0.00, 0.00
95, -157520.31, -146496.95, -132367.77, -136394.39, -131448.02, -154044.58, -158857.78, -162677.72, 0.06, 0.00, 0.00
96, -157523.02, -146499.05, -132370.36, -136396.52, -131450.36, -154046.50, -158860.30, -162679.77, 0.06, 0.00, 0.00
97, -157523.63, -146499.34, -132371.20, -136397.30, -131451.14, -154047.06, -158861.00, -162680.11, 0.06, 0.00, 0.00
98, -157518.13, -146493.81, -132366.33, -136392.58, -131446.22, -154042.11, -158855.72, -162674.83, 0.06, 0.00, 0.00
99, -157516.05, -146491.45, -132364.33, -136390.47, -131444.19, -154039.88, -158853.69, -162672.48, 0.06, 0.00, 0.00
100, -157520.89, -146495.66, -132369.02, -136394.70, -131448.53, -154043.88, -158858.25, -162676.64, 0.06, 0.00, 0.00
101, -157521.59, -146495.97, -132370.06, -136395.53, -131449.31, -154044.50, -158859.11, -162677.06, 0.06, 0.00, 0.00
102, -157517.92, -146492.36, -132367.00, -136392.70, -131446.38, -154041.36, -158855.88, -162673.58, 0.06, 0.00, 0.00
103, -157517.25, -146491.47, -132366.58, -136392.23, -131445.94, -154040.70, -158855.23, -162672.75, 0.06, 0.00, 0.00
104, -157519.02, -146492.55, -132367.94, -136393.27, -131447.13, -154041.59, -158856.56, -162673.64, 0.06, 0.00, 0.00
105, -157520.50, -146493.66, -132369.48, -136394.67, -131448.58, -154042.72, -158858.11, -162674.63, 0.06, 0.00, 0.00
106, -157516.63, -146489.91, -132366.31, -136391.61, -131445.38, -154039.34, -158854.72, -162671.03, 0.06, 0.00, 0.00
107, -157515.55, -146488.80, -132365.66, -136391.03, -131444.69, -154038.56, -158853.86, -162669.95, 0.06, 0.00, 0.00
108, -157520.20, -146492.69, -132370.17, -136394.97, -131448.84, -154042.42, -158858.16, -162673.84, 0.06, 0.00, 0.00
109, -157521.66, -146493.64, -132371.67, -136396.33, -131450.19, -154043.39, -158859.55, -162674.89, 0.06, 0.00, 0.00
110, -157517.52, -146489.55, -132368.14, -136392.84, -131446.67, -154039.66, -158855.86, -162670.84, 0.06, 0.00, 0.00
111, -157515.06, -146487.09, -132366.16, -136390.91, -131444.66, -154037.63, -158853.70, -162668.45, 0.06, 0.00, 0.00
112, -157517.19, -146488.50, -132368.03, -136392.52, -131446.30, -154038.98, -158855.41, -162669.89, 0.06, 0.00, 0.00
113, -157520.09, -146490.80, -132370.84, -136395.06, -131448.97, -154041.33, -158858.06, -162672.14, 0.06, 0.00, 0.00
114, -157515.13, -146485.70, -132366.33, -136390.50, -131444.38, -154036.59, -158853.38, -162667.08, 0.06, 0.00, 0.00
115, -157509.88, -146480.61, -132361.69, -136386.05, -131439.86, -154031.92, -158848.67, -162662.13, 0.06, 0.00, 0.00
116, -157512.30, -146482.63, -132364.20, -136388.16, -131442.14, -154033.80, -158850.95, -162664.03, 0.06, 0.00, 0.00
117, -157515.58, -146485.19, -132367.19, -136390.86, -131444.95, -154036.23, -158853.84, -162666.45, 0.06, 0.00, 0.00
118, -157513.20, -146482.64, -132365.22, -136388.80, -131442.94, -154034.06, -158851.73, -162664.03, 0.06, 0.00, 0.00
119, -157507.84, -146477.39, -132360.45, -136384.33, -131438.17, -154029.27, -158846.84, -162658.94, 0.06, 0.00, 0.00
120, -157511.28, -146480.30, -132363.89, -136387.53, -131441.44, -154032.28, -158850.17, -162661.86, 0.06, 0.00, 0.00
121, -157517.16, -146485.42, -132369.50, -136392.69, -131446.83, -154037.27, -158855.70, -162666.84, 0.06, 0.00, 0.00
122, -157515.16, -146483.36, -132367.88, -136391.14, -131445.23, -154035.39, -158854.00, -162664.75, 0.06, 0.00, 0.00
123, -157508.88, -146477.25, -132362.36, -136385.80, -131439.83, -154029.80, -158848.23, -162658.80, 0.06, 0.00, 0.00
124, -157507.23, -146475.30, -132360.86, -136384.22, -131438.27, -154028.06, -158846.64, -162656.92, 0.06, 0.00, 0.00
125, -157509.86, -146477.03, -132363.16, -136386.08, -131440.23, -154029.67, -158848.72, -162658.67, 0.06, 0.00, 0.00
126, -157508.77, -146475.56, -132362.25, -136384.95, -131439.25, -154028.41, -158847.58, -162657.13, 0.06, 0.00, 0.00
127, -157505.63, -146472.67, -132359.83, -136382.66, -131436.75, -154025.89, -158844.95, -162654.28, 0.06, 0.00, 0.00
128, -157505.50, -146472.45, -132360.08, -136382.88, -131436.95, -154025.95, -158845.17, -162654.16, 0.06, 0.00, 0.00
129, -157510.14, -146476.34, -132364.34, -136386.81, -131441.06, -154029.70, -158849.31, -162657.97, 0.06, 0.00, 0.00
130, -157510.53, -146476.16, -132364.70, -136387.02, -131441.38, -154029.70, -158849.58, -162657.91, 0.06, 0.00, 0.00
131, -157506.88, -146472.72, -132361.86, -136384.28, -131438.44, -154026.61, -158846.48, -162654.52, 0.06, 0.00, 0.00
132, -157504.64, -146470.27, -132360.03, -136382.47, -131436.61, -154024.64, -158844.50, -162652.20, 0.06, 0.00, 0.00
133, -157509.98, -146474.94, -132365.13, -136387.14, -131441.53, -154029.17, -158849.47, -162656.75, 0.06, 0.00, 0.00
134, -157511.44, -146475.83, -132366.63, -136388.27, -131442.77, -154030.11, -158850.73, -162657.66, 0.07, 0.00, 0.00
135, -157508.58, -146472.97, -132364.34, -136386.09, -131440.45, -154027.67, -158848.34, -162654.98, 0.07, 0.00, 0.00
136, -157505.39, -146469.97, -132361.69, -136383.56, -131437.89, -154024.88, -158845.64, -162652.05, 0.07, 0.00, 0.00
137, -157507.53, -146471.58, -132363.70, -136385.22, -131439.63, -154026.33, -158847.38, -162653.53, 0.06, 0.00, 0.00
138, -157510.08, -146473.44, -132366.06, -136387.25, -131441.78, -154028.19, -158849.59, -162655.34, 0.07, 0.00, 0.00
139, -157507.78, -146471.02, -132364.23, -136385.48, -131439.92, -154026.14, -158847.67, -162652.98, 0.07, 0.00, 0.00
140, -157504.44, -146467.59, -132361.48, -136382.89, -131437.22, -154023.36, -158844.72, -162649.81, 0.07, 0.02, 0.06
141, -157506.69, -146469.30, -132363.66, -136384.78, -131439.14, -154025.02, -158846.63, -162651.41, 0.07, 0.00, 0.00
142, -157510.25, -146472.20, -132367.00, -136387.75, -131442.33, -154027.78, -158849.86, -162654.17, 0.07, 0.00, 0.00
143, -157508.67, -146470.47, -132365.81, -136386.55, -131441.13, -154026.25, -158848.61, -162652.55, 0.07, 0.00, 0.00
144, -157502.72, -146464.70, -132360.61, -136381.42, -131435.94, -154020.92, -158843.20, -162646.91, 0.07, 0.00, 0.00
145, -157501.41, -146463.09, -132359.47, -136380.08, -131434.67, -154019.39, -158841.86, -162645.28, 0.07, 0.00, 0.00
146, -157505.09, -146466.06, -132362.89, -136383.13, -131437.84, -154022.13, -158845.19, -162648.14, 0.07, 0.00, 0.00
147, -157503.38, -146464.09, -132361.38, -136381.52, -131436.28, -154020.41, -158843.53, -162646.27, 0.07, 0.00, 0.00
148, -157497.25, -146457.98, -132355.88, -136376.19, -131430.75, -154015.00, -158837.89, -162640.36, 0.07, 0.00, 0.00
149, -157496.11, -146456.42, -132354.89, -136375.14, -131429.70, -154013.66, -158836.72, -162638.94, 0.07, 0.00, 0.00
150, -157499.84, -146459.47, -132358.31, -136378.19, -131432.88, -154016.50, -158840.05, -162641.72, 0.07, 0.00, 0.00
151, -157498.66, -146457.92, -132357.42, -136376.92, -131431.88, -154015.20, -158839.00, -162640.27, 0.07, 0.00, 0.00
152, -157494.86, -146454.25, -132354.28, -136374.09, -131428.81, -154012.13, -158835.73, -162636.86, 0.07, 0.00, 0.00
153, -157495.11, -146454.34, -132354.75, -136374.69, -131429.23, -154012.36, -158836.14, -162636.89, 0.07, 0.00, 0.00
154, -157499.28, -146457.83, -132358.58, -136378.06, -131432.81, -154015.56, -158839.89, -162640.25, 0.07, 0.00, 0.00
155, -157500.22, -146458.28, -132359.61, -136378.77, -131433.59, -154016.05, -158840.72, -162640.61, 0.07, 0.00, 0.00
156, -157494.77, -146452.89, -132354.84, -136374.00, -131428.86, -154011.03, -158835.77, -162635.36, 0.07, 0.00, 0.00
157, -157490.52, -146448.61, -132351.09, -136370.31, -131425.22, -154007.16, -158831.89, -162631.28, 0.07, 0.00, 0.00
158, -157494.91, -146452.33, -132355.22, -136374.17, -131429.11, -154010.83, -158835.89, -162634.78, 0.07, 0.00, 0.00
159, -157495.95, -146452.69, -132356.20, -136374.78, -131429.86, -154011.20, -158836.61, -162635.20, 0.07, 0.00, 0.00
160, -157492.69, -146449.41, -132353.48, -136372.09, -131427.20, -154008.36, -158833.77, -162632.09, 0.07, 0.00, 0.00
161, -157488.94, -146445.81, -132350.28, -136369.06, -131423.98, -154005.22, -158830.50, -162628.56, 0.07, 0.00, 0.00
162, -157491.92, -146448.27, -132353.22, -136371.75, -131426.73, -154007.52, -158833.33, -162630.91, 0.07, 0.00, 0.00
163, -157496.06, -146451.69, -132357.14, -136375.34, -131430.52, -154010.95, -158837.14, -162634.30, 0.07, 0.00, 0.00
164, -157493.84, -146449.31, -132355.30, -136373.52, -131428.63, -154009.02, -158835.22, -162632.05, 0.07, 0.00, 0.00
165, -157492.38, -146448.00, -132354.53, -136372.84, -131427.83, -154008.00, -158834.13, -162630.89, 0.07, 0.00, 0.00
166, -157494.56, -146449.72, -132356.67, -136374.84, -131429.86, -154009.69, -158836.16, -162632.61, 0.07, 0.00, 0.00
167, -157496.11, -146450.61, -132358.06, -136375.81, -131430.95, -154010.52, -158837.39, -162633.39, 0.07, 0.00, 0.00
168, -157493.66, -146447.89, -132355.98, -136373.63, -131428.70, -154008.16, -158835.00, -162630.75, 0.07, 0.00, 0.00
169, -157489.97, -146444.33, -132352.94, -136370.80, -131425.77, -154005.02, -158831.89, -162627.33, 0.07, 0.00, 0.00
170, -157488.67, -146442.75, -132351.80, -136369.53, -131424.55, -154003.52, -158830.63, -162625.75, 0.07, 0.00, 0.00
171, -157492.55, -146445.92, -132355.50, -136372.73, -131427.98, -154006.58, -158834.19, -162628.88, 0.07, 0.00, 0.00
172, -157493.83, -146446.92, -132356.97, -136374.05, -131429.30, -154007.73, -158835.56, -162629.88, 0.07, 0.00, 0.00
173, -157487.92, -146441.11, -132351.69, -136368.88, -131424.09, -154002.33, -158830.19, -162624.17, 0.07, 0.00, 0.00
174, -157487.08, -146439.95, -132351.00, -136368.30, -131423.33, -154001.45, -158829.30, -162623.03, 0.07, 0.00, 0.00
175, -157492.83, -146444.91, -132356.41, -136373.36, -131428.50, -154006.23, -158834.55, -162627.94, 0.07, 0.00, 0.00
176, -157493.41, -146445.16, -132357.27, -136373.94, -131429.22, -154006.63, -158835.22, -162628.22, 0.07, 0.00, 0.00
177, -157489.92, -146441.78, -132354.39, -136371.20, -131426.33, -154003.63, -158832.20, -162624.83, 0.07, 0.00, 0.00
178, -157485.20, -146437.00, -132350.13, -136366.95, -131422.11, -153999.17, -158827.78, -162620.14, 0.07, 0.00, 0.00
179, -157488.08, -146439.17, -132352.77, -136369.19, -131424.50, -154001.30, -158830.28, -162622.25, 0.07, 0.00, 0.00
180, -157489.48, -146440.16, -132354.11, -136370.30, -131425.69, -154002.16, -158831.53, -162623.13, 0.07, 0.00, 0.00
181, -157485.72, -146436.33, -132350.95, -136367.20, -131422.58, -153998.91, -158828.14, -162619.48, 0.07, 0.00, 0.00
182, -157482.20, -146432.78, -132347.83, -136364.23, -131419.45, -153995.73, -158824.92, -162616.13, 0.07, 0.00, 0.00
183, -157486.16, -146435.95, -132351.58, -136367.58, -131422.94, -153998.86, -158828.55, -162619.31, 0.07, 0.00, 0.00
184, -157488.44, -146437.72, -132353.73, -136369.53, -131425.02, -154000.66, -158830.64, -162620.92, 0.07, 0.00, 0.00
185, -157481.78, -146431.03, -132347.67, -136363.50, -131418.84, -153994.33, -158824.36, -162614.34, 0.06, 0.00, 0.00
186, -157477.38, -146426.70, -132343.94, -136359.88, -131415.00, -153990.44, -158820.45, -162610.19, 0.06, 0.00, 0.00
187, -157478.77, -146427.48, -132345.25, -136360.88, -131416.16, -153991.25, -158821.59, -162610.97, 0.06, 0.00, 0.00
188, -157483.53, -146431.56, -132349.80, -136365.02, -131420.52, -153995.25, -158825.91, -162614.91, 0.07, 0.00, 0.00
189, -157479.70, -146427.61, -132346.33, -136361.64, -131417.08, -153991.59, -158822.30, -162610.98, 0.07, 0.00, 0.00
190, -157475.17, -146423.28, -132342.58, -136357.94, -131413.36, -153987.63, -158818.34, -162606.81, 0.06, 0.00, 0.00
191, -157475.72, -146423.44, -132343.13, -136358.27, -131413.72, -153987.78, -158818.73, -162606.92, 0.06, 0.00, 0.00
192, -157480.31, -146427.28, -132347.42, -136362.16, -131417.80, -153991.53, -158822.89, -162610.66, 0.06, 0.00, 0.00
193, -157480.63, -146427.30, -132348.05, -136362.75, -131418.42, -153991.89, -158823.47, -162610.86, 0.06, 0.00, 0.00
194, -157476.39, -146423.33, -132344.58, -136359.47, -131414.94, -153988.30, -158819.89, -162607.03, 0.06, 0.00, 0.00
195, -157474.89, -146421.59, -132343.36, -136358.06, -131413.61, -153986.77, -158818.39, -162605.27, 0.06, 0.00, 0.00
196, -157476.78, -146422.66, -132345.03, -136359.25, -131414.89, -153987.75, -158819.89, -162606.28, 0.06, 0.00, 0.00
197, -157478.78, -146424.28, -132347.17, -136361.19, -131416.94, -153989.59, -158822.02, -162607.92, 0.06, 0.00, 0.00
198, -157473.56, -146419.09, -132342.53, -136356.77, -131412.41, -153984.88, -158817.14, -162602.92, 0.06, 0.00, 0.00
199, -157469.69, -146415.05, -132338.95, -136353.27, -131408.77, -153981.00, -158813.41, -162598.91, 0.06, 0.00, 0.00
200, -157472.70, -146417.36, -132341.75, -136355.63, -131411.28, -153983.16, -158816.09, -162601.02, 0.06, 0.00, 0.00
201, -157474.72, -146418.97, -132343.78, -136357.53, -131413.20, -153984.92, -158818.06, -162602.61, 0.06, 0.00, 0.00
202, -157470.09, -146414.47, -132339.88, -136353.69, -131409.34, -153980.94, -158813.91, -162598.25, 0.06, 0.00, 0.00
203, -157467.47, -146411.77, -132337.66, -136351.58, -131407.11, -153978.53, -158811.58, -162595.69, 0.06, 0.00, 0.00
204, -157473.31, -146416.81, -132343.13, -136356.67, -131412.31, -153983.42, -158816.89, -162600.59, 0.06, 0.00, 0.00
205, -157474.69, -146417.72, -132344.58, -136357.75, -131413.66, -153984.34, -158818.11, -162601.53, 0.06, 0.00, 0.00
206, -157473.17, -146416.14, -132343.58, -136356.83, -131412.70, -153983.16, -158816.98, -162600.13, 0.06, 0.00, 0.00
207, -157470.81, -146413.78, -132341.59, -136355.05, -131410.78, -153981.05, -158814.95, -162597.80, 0.06, 0.00, 0.00
208, -157473.56, -146415.91, -132344.25, -136357.33, -131413.09, -153983.27, -158817.44, -162599.91, 0.06, 0.00, 0.00
209, -157475.20, -146417.02, -132345.84, -136358.64, -131414.50, -153984.47, -158818.95, -162600.98, 0.06, 0.00, 0.00
210, -157471.14, -146412.91, -132342.23, -136355.19, -131411.02, -153980.64, -158815.16, -162596.91, 0.06, 0.00, 0.00
211, -157465.11, -146406.98, -132336.88, -136349.91, -131405.59, -153975.16, -158809.58, -162591.13, 0.06, 0.00, 0.00
212, -157466.72, -146407.94, -132338.45, -136351.05, -131406.92, -153976.06, -158810.95, -162592.06, 0.06, 0.00, 0.00
213, -157474.09, -146414.58, -132345.59, -136357.77, -131413.75, -153982.61, -158817.91, -162598.59, 0.06, 0.00, 0.00
214, -157473.13, -146413.53, -132344.89, -136357.19, -131413.19, -153981.91, -158817.23, -162597.58, 0.06, 0.00, 0.00
215, -157467.41, -146407.97, -132339.84, -136352.28, -131408.22, -153976.84, -158812.14, -162592.22, 0.06, 0.00, 0.00
216, -157468.61, -146408.89, -132341.20, -136353.50, -131409.48, -153977.77, -158813.23, -162593.02, 0.06, 0.02, 0.04
217, -157471.52, -146411.05, -132343.84, -136355.69, -131411.80, -153979.73, -158815.67, -162595.09, 0.06, 0.00, 0.00
218, -157469.33, -146408.56, -132341.92, -136353.66, -131409.77, -153977.55, -158813.67, -162592.73, 0.06, 0.00, 0.00
219, -157463.70, -146403.11, -132337.09, -136348.94, -131404.92, -153972.59, -158808.63, -162587.39, 0.06, 0.00, 0.00
220, -157461.80, -146400.84, -132335.27, -136347.14, -131403.08, -153970.48, -158806.70, -162585.17, 0.06, 0.00, 0.00
221, -157466.27, -146404.50, -132339.36, -136350.89, -131406.97, -153974.02, -158810.66, -162588.75, 0.06, 0.00, 0.00
222, -157469.33, -146407.25, -132342.64, -136354.00, -131410.08, -153976.80, -158813.78, -162591.41, 0.06, 0.00, 0.00
223, -157466.52, -146404.44, -132340.41, -136351.92, -131407.89, -153974.45, -158811.42, -162588.75, 0.06, 0.00, 0.00
224, -157462.31, -146400.14, -132336.56, -136348.14, -131404.02, -153970.45, -158807.38, -162584.53, 0.06, 0.00, 0.00
225, -157465.95, -146403.14, -132340.11, -136351.20, -131407.27, -153973.42, -158810.80, -162587.44, 0.06, 0.00, 0.00
226, -157469.00, -146405.64, -132343.11, -136354.02, -131410.14, -153975.95, -158813.63, -162589.95, 0.06, 0.00, 0.00
227, -157464.25, -146401.00, -132338.95, -136350.02, -131406.06, -153971.73, -158809.36, -162585.38, 0.06, 0.00, 0.00
228, -157458.28, -146394.95, -132333.52, -136344.55, -131400.52, -153966.09, -158803.64, -162579.47, 0.06, 0.00, 0.00
229, -157460.75, -146396.70, -132335.84, -136346.34, -131402.59, -153967.75, -158805.73, -162581.20, 0.06, 0.00, 0.00
230, -157465.28, -146400.72, -132340.30, -136350.53, -131406.95, -153971.78, -158810.17, -162585.11, 0.06, 0.00, 0.00
231, -157463.36, -146398.73, -132338.94, -136349.23, -131405.55, -153970.19, -158808.64, -162583.28, 0.06, 0.00, 0.00
232, -157459.41, -146394.84, -132335.53, -136346.06, -131402.22, -153966.77, -158805.11, -162579.55, 0.06, 0.00, 0.00
233, -157461.66, -146396.52, -132337.56, -136347.84, -131404.09, -153968.36, -158807.17, -162581.08, 0.06, 0.00, 0.00
234, -157466.36, -146400.55, -132342.03, -136351.98, -131408.31, -153972.27, -158811.52, -162585.00, 0.06, 0.00, 0.00
235, -157463.05, -146397.17, -132339.25, -136349.13, -131405.36, -153969.22, -158808.47, -162581.70, 0.06, 0.00, 0.00
236, -157458.00, -146392.20, -132334.92, -136344.98, -131401.00, -153964.78, -158803.91, -162576.88, 0.07, 0.00, 0.00
237, -157458.80, -146392.48, -132335.58, -136345.55, -131401.59, -153965.09, -158804.44, -162577.13, 0.06, 0.00, 0.00
238, -157461.13, -146394.13, -132337.66, -136347.22, -131403.58, -153966.66, -158806.39, -162578.69, 0.06, 0.00, 0.00
239, -157461.39, -146394.27, -132338.30, -136347.73, -131404.19, -153966.92, -158806.92, -162578.84, 0.06, 0.00, 0.00
240, -157455.20, -146388.28, -132332.88, -136342.48, -131398.77, -153961.34, -158801.36, -162573.00, 0.06, 0.00, 0.00
241, -157455.34, -146387.98, -132333.09, -136342.58, -131398.88, -153961.17, -158801.45, -162572.81, 0.06, 0.00, 0.00
242, -157460.72, -146392.64, -132338.28, -136347.25, -131403.64, -153965.77, -158806.39, -162577.33, 0.06, 0.00, 0.00
243, -157459.27, -146390.89, -132337.09, -136346.00, -131402.38, -153964.31, -158804.98, -162575.61, 0.06, 0.00, 0.00
244, -157454.67, -146386.39, -132333.09, -136342.22, -131398.56, -153960.38, -158800.88, -162571.30, 0.06, 0.00, 0.00
245, -157455.11, -146386.75, -132333.77, -136342.84, -131399.28, -153960.75, -158801.45, -162571.63, 0.06, 0.00, 0.00
246, -157456.67, -146387.52, -132335.05, -136343.73, -131400.22, -153961.41, -158802.64, -162572.25, 0.06, 0.00, 0.00
247, -157455.22, -146385.53, -132333.66, -136342.22, -131398.69, -153959.59, -158801.19, -162570.41, 0.06, 0.00, 0.00
248, -157452.20, -146382.63, -132331.27, -136339.95, -131396.38, -153957.14, -158798.61, -162567.61, 0.06, 0.00, 0.00
249, -157449.11, -146379.42, -132328.58, -136337.34, -131393.66, -153954.31, -158795.80, -162564.50, 0.06, 0.00, 0.00
250, -157453.02, -146382.59, -132332.25, -136340.56, -131397.11, -153957.31, -158799.19, -162567.63, 0.06, 0.00, 0.00
